##TITLE= STDACIDOBENZOICO
##JCAMP-DX= 4.24
##DATA TYPE= INFRARED SPECTRUM
##ORIGIN= JASCO
##OWNER= 
##DATE= 22/04/13
##TIME= 14:19:51
##SPECTROMETER/DATA SYSTEM= 
##RESOLUTION= 
##DELTAX=   0.48211674
##XUNITS= 1/CM
##YUNITS= TRANSMITTANCE
##XFACTOR= 1.00000
##YFACTOR= 1E-005
##FIRSTX=   599.7532
##LASTX=  4000.1226
##NPOINTS=     7054
##FIRSTY=      0.72521
##MAXY=      0.98098
##MINY=      0.09888
##XYDATA= (X++(Y..Y))
599.7532 72521 72506 72420 72233 71932 71522 71035 70532 70089 69775 69621
605.0565 69612 69693 69785 69817 69732 69508 69164 68765 68399 68146 68031
610.3598 68011 68003 67933 67775 67557 67322 67079 66784 66370 65804 65143
615.6631 64528 64134 64087 64396 64941 65532 66025 66380 66653 66926 67239
620.9664 67573 67864 68054 68127 68104 68003 67806 67459 66911 66170 65320
626.2697 64495 63817 63348 63078 62946 62866 62755 62540 62170 61622 60914
631.5729 60114 59322 58647 58168 57908 57832 57859 57881 57792 57511 57006
636.8762 56301 55477 54654 53973 53560 53480 53704 54097 54455 54581 54351
642.1795 53765 52928 52003 51146 50468 50025 49831 49862 50049 50260 50315
647.4828 50029 49296 48155 46811 45552 44629 44152 44072 44218 44373 44347
652.7861 44025 43393 42508 41462 40345 39232 38195 37298 36593 36078 35688
658.0894 35299 34763 33963 32838 31395 29713 27938 26266 24892 23918 23284
663.3926 22758 22042 20933 19421 17622 15648 13538 11389 9888 11472 19265
668.6959 30191 38551 44121 48531 52712 56902 60940 64494 67273 69156 70175
673.9992 70392 69815 68387 66040 62787 58789 54382 50038 46226 43252 41159
679.3025 39755 38720 37741 36599 35203 33590 31904 30383 29328 29037 29730
684.6058 31480 34174 37511 41037 44233 46648 48028 48372 47881 46846 45525
689.9091 44086 42605 41107 39611 38139 36713 35329 33959 32575 31180 29822
695.2123 28577 27499 26585 25761 24916 23946 22801 21505 20139 18817 17642
700.5156 16680 15944 15397 14970 14591 14220 13872 13636 13659 14129 15222
705.8189 17052 19630 22847 26506 30379 34269 38048 41655 45067 48286 51336
711.1222 54275 57194 60197 63366 66727 70242 73821 77340 80669 83698 86350
716.4255 88608 90514 92140 93553 94763 95725 96364 96645 96624 96445 96266
721.7288 96181 96201 96280 96369 96442 96504 96569 96635 96671 96631 96474
727.0320 96196 95838 95475 95188 95024 94987 95038 95123 95200 95250 95272
732.3353 95262 95203 95072 94857 94568 94240 93909 93604 93332 93086 92854
737.6386 92623 92384 92127 91853 91581 91342 91171 91083 91060 91059 91036
742.9419 90970 90875 90785 90728 90700 90667 90584 90425 90204 89963 89755
748.2452 89608 89512 89418 89264 89001 88614 88129 87612 87144 86798 86618
753.5485 86598 86685 86795 86840 86767 86575 86307 86033 85809 85663 85587
758.8517 85559 85556 85567 85588 85611 85621 85596 85524 85411 85280 85158
764.1550 85060 84984 84920 84862 84813 84777 84750 84707 84622 84488 84327
769.4583 84189 84113 84113 84163 84230 84293 84358 84436 84518 84564 84522
774.7616 84365 84118 83848 83621 83462 83347 83220 83036 82780 82466 82110
780.0649 81714 81268 80755 80173 79536 78862 78168 77465 76754 76041 75334
785.3682 74645 73986 73368 72792 72251 71722 71178 70593 69955 69272 68571
790.6714 67890 67258 66687 66169 65674 65166 64609 63979 63274 62508 61705
795.9747 60882 60043 59171 58242 57239 56171 55068 53974 52923 51921 50956
801.2780 50007 49075 48188 47408 46800 46418 46288 46408 46754 47294 47987
806.5813 48784 49617 50392 50994 51317 51311 51043 50726 50692 51304 52827
811.8846 55308 58531 62073 65440 68233 70249 71512 72199 72551 72773 72995
817.1879 73262 73565 73876 74173 74453 74723 74992 75254 75491 75675 75785
822.4911 75816 75782 75709 75627 75556 75506 75474 75448 75412 75355 75272
827.7944 75168 75053 74934 74810 74669 74500 74296 74068 73837 73627 73453
833.0977 73320 73235 73208 73255 73385 73582 73801 73986 74093 74114 74072
838.4010 74003 73934 73869 73801 73724 73644 73574 73526 73499 73483 73467
843.7043 73444 73415 73378 73332 73271 73188 73077 72937 72771 72589 72405
849.0076 72237 72094 71974 71866 71752 71616 71450 71251 71022 70771 70510
854.3109 70258 70039 69881 69814 69861 70036 70330 70711 71118 71485 71753
859.6141 71891 71907 71836 71722 71600 71482 71361 71221 71059 70887 70736
864.9174 70636 70591 70575 70538 70432 70236 69971 69682 69419 69214 69074
870.2207 68986 68929 68889 68856 68821 68774 68700 68581 68401 68150 67826
875.5240 67442 67020 66582 66150 65733 65335 64958 64605 64280 63980 63696
880.8273 63409 63108 62790 62472 62180 61934 61740 61580 61423 61232 60983
886.1306 60669 60307 59932 59583 59288 59053 58862 58680 58471 58209 57886
891.4338 57511 57102 56681 56267 55867 55479 55090 54682 54246 53788 53331
896.7371 52899 52509 52158 51824 51483 51117 50727 50325 49925 49531 49135
902.0404 48723 48282 47814 47333 46862 46425 46033 45678 45335 44973 44570
907.3437 44122 43649 43174 42717 42281 41854 41424 40988 40558 40151 39778
912.6470 39435 39105 38767 38412 38047 37691 37369 37094 36868 36677 36504
917.9503 36336 36167 35998 35839 35697 35580 35487 35412 35347 35280 35208
923.2535 35128 35043 34953 34858 34755 34641 34515 34379 34234 34080 33918
928.5568 33749 33582 33427 33299 33208 33161 33158 33198 33283 33423 33632
933.8601 33922 34297 34755 35293 35911 36624 37452 38411 39488 40634 41769
939.1634 42798 43640 44257 44661 44911 45089 45281 45550 45935 46447 47080
944.4667 47813 48620 49475 50353 51235 52115 52992 53874 54770 55687 56632
949.7700 57605 58605 59622 60646 61664 62664 63641 64601 65552 66507 67468
955.0732 68431 69383 70309 71200 72058 72890 73708 74516 75308 76074 76801
960.3765 77485 78126 78730 79300 79836 80336 80806 81256 81699 82143 82584
965.6798 83010 83411 83785 84142 84499 84865 85235 85590 85912 86190 86425
970.9831 86629 86813 86979 87118 87214 87250 87219 87134 87022 86919 86854
976.2864 86831 86823 86776 86631 86344 85907 85346 84718 84086 83505 83004
981.5897 82581 82209 81854 81494 81124 80759 80417 80110 79833 79576 79331
986.8929 79107 78928 78819 78797 78858 78977 79120 79250 79337 79359 79291
992.1962 79114 78814 78391 77861 77262 76648 76094 75689 75508 75553 75702
997.4995 75700 75251 74191 72645 71067 70086 70226 71639 74018 76726 79097
1002.8028 80704 81485 81657 81536 81362 81235 81151 81077 81002 80944 80918
1008.1061 80924 80937 80929 80883 80799 80692 80581 80481 80399 80330 80260
1013.4094 80171 80046 79879 79671 79427 79148 78832 78475 78082 77676 77291
1018.7126 76958 76682 76434 76154 75766 75200 74407 73361 72056 70486 68626
1024.0160 66435 63882 61018 58071 55494 53920 53989 56108 60232 65813 71948
1029.3192 77672 82268 85437 87282 88147 88414 88373 88185 87922 87620 87310
1034.6226 87022 86770 86550 86347 86154 85977 85830 85723 85650 85591 85526
1039.9258 85448 85369 85310 85283 85273 85243 85150 84962 84682 84337 83970
1045.2291 83611 83276 82958 82646 82331 82015 81703 81403 81118 80846 80584
1050.5323 80321 80053 79776 79495 79223 78973 78749 78541 78321 78064 77759
1055.8357 77417 77072 76759 76495 76272 76063 75835 75568 75257 74915 74560
1061.1389 74206 73854 73493 73102 72659 72151 71578 70950 70284 69591 68875
1066.4423 68134 67368 66579 65780 64984 64202 63441 62704 61982 61271 60579
1071.7455 59951 59492 59366 59770 60879 62771 65384 68507 71838 75059 77917
1077.0488 80266 82066 83347 84177 84631 84786 84713 84478 84140 83745 83326
1082.3521 82906 82505 82134 81802 81510 81254 81028 80827 80649 80495 80365
1087.6554 80255 80158 80065 79970 79867 79757 79642 79518 79376 79196 78952
1092.9586 78622 78191 77659 77037 76342 75589 74782 73922 73009 72051 71063
1098.2620 70071 69111 68227 67473 66911 66598 66575 66845 67370 68072 68853
1103.5652 69622 70310 70887 71352 71720 72007 72221 72360 72418 72394 72300
1108.8685 72156 71984 71800 71611 71412 71198 70966 70720 70468 70214 69956
1114.1718 69687 69399 69089 68757 68407 68036 67639 67202 66718 66188 65622
1119.4751 65036 64441 63835 63201 62518 61768 60947 60061 59119 58121 57061
1124.7783 55935 54764 53607 52558 51736 51256 51208 51643 52573 53972 55777
1130.0817 57895 60200 62551 64811 66875 68683 70220 71503 72557 73400 74048
1135.3849 74517 74835 75040 75173 75264 75329 75368 75377 75353 75308 75254
1140.6882 75203 75157 75106 75039 74949 74842 74732 74631 74541 74452 74351
1145.9915 74233 74100 73959 73807 73633 73419 73159 72864 72561 72280 72034
1151.2948 71813 71592 71346 71059 70736 70392 70046 69712 69398 69105 68829
1156.5980 68562 68297 68027 67745 67455 67160 66867 66578 66292 66002 65701
1161.9014 65385 65052 64703 64337 63953 63545 63109 62641 62145 61631 61118
1167.2046 60635 60214 59882 59651 59507 59413 59313 59153 58894 58519 58028
1172.5079 57430 56730 55931 55033 54043 52973 51844 50685 49529 48422 47420
1177.8112 46590 45996 45690 45693 45987 46512 47171 47854 48457 48908 49167
1183.1145 49230 49118 48871 48542 48203 47944 47872 48092 48691 49713 51149
1188.4177 52935 54965 57114 59253 61274 63098 64684 66023 67129 68023 68727
1193.7211 69255 69622 69851 69973 70023 70027 70001 69945 69855 69729 69571
1199.0243 69393 69204 69009 68808 68596 68370 68131 67881 67628 67376 67132
1204.3276 66900 66683 66477 66277 66074 65858 65625 65373 65110 64847 64596
1209.6309 64362 64146 63941 63742 63551 63379 63245 63167 63156 63206 63300
1214.9342 63415 63528 63623 63696 63741 63759 63747 63703 63631 63539 63438
1220.2374 63334 63231 63124 63011 62894 62777 62670 62576 62491 62402 62298
1225.5408 62169 62016 61847 61673 61501 61333 61161 60977 60772 60542 60290
1230.8440 60022 59749 59476 59205 58933 58654 58363 58061 57748 57428 57103
1236.1473 56775 56446 56120 55801 55492 55193 54900 54607 54310 54007 53703
1241.4506 53404 53113 52830 52551 52272 51986 51692 51389 51079 50763 50445
1246.7539 50127 49813 49503 49198 48894 48584 48262 47921 47559 47179 46792
1252.0571 46408 46034 45671 45315 44962 44611 44266 43932 43611 43295 42976
1257.3605 42644 42297 41938 41573 41208 40841 40470 40093 39708 39316 38917
1262.6637 38505 38072 37608 37108 36568 35992 35386 34754 34105 33445 32781
1267.9670 32116 31455 30798 30146 29502 28874 28276 27725 27239 26828 26492
1273.2703 26228 26028 25887 25803 25770 25782 25826 25888 25951 25998 26014
1278.5736 25986 25904 25765 25570 25324 25031 24699 24335 23948 23551 23157
1283.8768 22778 22423 22094 21789 21504 21242 21013 20834 20721 20688 20742
1289.1802 20889 21132 21477 21929 22489 23156 23924 24792 25762 26837 28021
1294.4834 29315 30715 32209 33778 35394 37026 38645 40235 41789 43306 44780
1299.7867 46203 47561 48842 50041 51164 52226 53243 54239 55234 56249 57304
1305.0900 58414 59591 60834 62131 63449 64739 65934 66964 67767 68302 68553
1310.3933 68525 68237 67711 66974 66055 64990 63819 62582 61307 60004 58671
1315.6965 57294 55863 54364 52781 51091 49274 47325 45275 43194 41177 39319
1320.9999 37690 36341 35309 34620 34293 34337 34740 35479 36519 37821 39346
1326.3031 41060 42938 44963 47128 49436 51893 54501 57251 60113 63036 65964
1331.6064 68836 71604 74219 76638 78824 80760 82454 83932 85230 86377 87389
1336.9097 88272 89027 89661 90179 90590 90910 91158 91363 91548 91725 91893
1342.2130 92040 92154 92227 92259 92255 92225 92175 92107 92020 91912 91781
1347.5162 91624 91440 91227 90988 90728 90458 90188 89929 89691 89485 89319
1352.8196 89198 89125 89097 89110 89152 89205 89249 89261 89231 89155 89043
1358.1228 88911 88773 88637 88501 88360 88201 88016 87797 87547 87282 87033
1363.4261 86829 86682 86580 86500 86420 86323 86201 86053 85885 85712 85552
1368.7294 85422 85328 85258 85192 85105 84983 84821 84617 84366 84060 83693
1374.0327 83279 82855 82462 82115 81806 81509 81208 80893 80572 80259 79965
1379.3359 79693 79434 79178 78919 78657 78400 78156 77927 77709 77492 77266
1384.6393 77024 76766 76487 76183 75852 75501 75157 74848 74582 74342 74103
1389.9425 73839 73534 73185 72806 72416 72022 71619 71185 70693 70123 69493
1395.2458 68856 68261 67721 67217 66713 66172 65568 64911 64256 63669 63172
1400.5491 62739 62327 61906 61467 61018 60564 60102 59617 59092 58534 57969
1405.8524 57421 56885 56335 55737 55078 54367 53628 52887 52156 51432 50712
1411.1556 49995 49288 48593 47911 47244 46598 45977 45384 44816 44272 43759
1416.4590 43293 42888 42550 42277 42073 41955 41942 42019 42148 42303 42482
1421.7622 42700 42984 43368 43874 44485 45145 45795 46417 47032 47673 48366
1427.0656 49113 49908 50758 51707 52832 54188 55736 57342 58884 60351 61835
1432.3688 63436 65176 66954 68612 70051 71287 72440 73682 75124 76627 77877
1437.6721 78751 79361 79842 80257 80608 80867 81007 81019 80914 80708 80404
1442.9753 79990 79443 78747 77911 76961 75932 74825 73590 72124 70322 68181
1448.2787 65846 63493 61171 58779 56159 53217 50039 46975 44568 43300 43367
1453.5819 44676 46991 50083 53814 58157 63120 68487 73530 77366 79805 81312
1458.8853 82351 83154 83797 84308 84710 85030 85295 85525 85731 85926 86136
1464.1885 86408 86787 87268 87791 88301 88782 89237 89662 90038 90339 90549
1469.4918 90677 90735 90730 90642 90429 90059 89595 89205 88993 88911 88866
1474.7950 88788 88645 88442 88232 88080 88015 88009 88012 87983 87901 87760
1480.0984 87572 87357 87134 86920 86720 86533 86352 86169 85978 85773 85552
1485.4016 85301 85001 84632 84204 83761 83359 83013 82685 82303 81812 81241
1490.7050 80675 80152 79611 78968 78175 77239 76206 75128 74040 72978 72029
1496.0082 71368 71167 71488 72301 73563 75190 76959 78550 79738 80514 81005
1501.3115 81350 81621 81830 81960 82008 81993 81935 81833 81651 81314 80789
1506.6147 80249 79950 79874 79880 79890 79889 79874 79845 79793 79712 79597
1511.9181 79457 79303 79145 78983 78809 78618 78406 78169 77899 77593 77272
1517.2213 76982 76747 76550 76358 76139 75867 75523 75121 74748 74523 74441
1522.5247 74404 74355 74287 74209 74124 74037 73946 73861 73791 73747 73733
1527.8279 73747 73778 73806 73815 73795 73746 73677 73597 73511 73422 73329
1533.1312 73239 73165 73119 73090 73058 73003 72917 72796 72643 72455 72229
1538.4344 71956 71655 71406 71292 71274 71271 71244 71195 71134 71067 70992
1543.7378 70903 70800 70690 70585 70491 70401 70299 70176 70026 69853 69669
1549.0410 69493 69347 69239 69151 69059 68946 68814 68665 68507 68347 68196
1554.3444 68064 67944 67822 67682 67510 67290 66993 66590 66107 65786 65888
1559.6476 66168 66338 66370 66309 66187 66022 65820 65588 65332 65064 64799
1564.9509 64547 64305 64064 63815 63554 63282 62995 62688 62360 62028 61730
1570.2542 61480 61250 61003 60707 60344 59920 59459 58998 58551 58099 57583
1575.5575 56931 56156 55417 54841 54388 53963 53509 53008 52468 51914 51372
1580.8607 50864 50413 50048 49816 49772 49972 50474 51331 52589 54265 56325
1586.1641 58672 61154 63593 65818 67693 69134 70114 70648 70785 70594 70154
1591.4674 69542 68819 68024 67172 66262 65290 64259 63180 62065 60917 59737
1596.7706 58530 57316 56128 55008 53999 53145 52489 52074 51924 52047 52430
1602.0740 53048 53869 54847 55918 57019 58104 59161 60202 61240 62269 63262
1607.3772 64183 65017 65769 66452 67068 67594 68006 68292 68465 68543 68534
1612.6805 68437 68251 67987 67668 67306 66884 66339 65599 64717 63948 63501
1617.9838 63360 63437 63678 64048 64497 64940 65292 65506 65584 65566 65512
1623.2871 65480 65486 65499 65483 65423 65322 65189 65039 64890 64752 64617
1628.5903 64463 64270 64036 63764 63461 63136 62796 62454 62118 61789 61456
1633.8937 61099 60691 60231 59782 59442 59214 59018 58795 58529 58223 57886
1639.1969 57524 57140 56735 56313 55877 55430 54973 54509 54043 53582 53128
1644.5002 52669 52188 51665 51107 50563 50084 49661 49236 48771 48270 47754
1649.8035 47237 46723 46200 45651 45054 44392 43723 43247 42977 42697 42348
1655.1068 41951 41524 41070 40590 40089 39574 39054 38532 38009 37489 36980
1660.4100 36489 36010 35519 34982 34385 33766 33190 32681 32206 31717 31184
1665.7134 30613 30037 29490 28976 28465 27904 27270 26615 26041 25586 25192
1671.0166 24793 24375 23976 23638 23372 23154 22940 22690 22399 22135 21979
1676.3199 21929 21930 21947 21970 22012 22095 22244 22474 22777 23117 23453
1681.6232 23755 24011 24237 24529 25169 26512 28233 29566 30454 31170 31899
1686.9265 32728 33693 34798 36023 37330 38676 40027 41359 42657 43912 45116
1692.2297 46250 47289 48212 49023 49768 50577 51672 53202 54862 56109 56837
1697.5331 57246 57511 57730 58003 58544 59672 61150 62183 62691 62986 63266
1702.8363 63622 64099 64699 65387 66118 66893 67763 68759 69829 70868 71806
1708.1396 72643 73425 74196 74974 75737 76443 77064 77602 78073 78497 78894
1713.4429 79294 79738 80246 80787 81292 81712 82054 82371 82760 83295 83925
1718.7462 84521 85039 85507 85963 86428 86904 87388 87880 88387 88911 89443
1724.0494 89961 90445 90892 91309 91706 92080 92417 92702 92923 93087 93209
1729.3528 93318 93447 93611 93806 94009 94197 94340 94382 94235 93855 93440
1734.6560 93274 93361 93562 93776 93960 94094 94165 94159 94055 93847 93574
1739.9594 93327 93177 93118 93094 93042 92918 92705 92436 92172 91964 91812
1745.2626 91690 91565 91414 91229 91013 90790 90593 90449 90362 90321 90306
1750.5659 90308 90330 90384 90474 90591 90722 90851 90968 91065 91135 91179
1755.8691 91201 91212 91223 91238 91254 91268 91279 91287 91287 91268 91208
1761.1725 91095 90940 90787 90675 90609 90565 90520 90454 90364 90254 90133
1766.4757 90005 89872 89739 89615 89512 89430 89355 89273 89173 89047 88894
1771.7791 88731 88587 88477 88384 88289 88180 88057 87927 87805 87703 87624
1777.0823 87555 87481 87390 87275 87139 86990 86840 86704 86588 86492 86406
1782.3856 86319 86219 86097 85953 85794 85636 85494 85376 85281 85204 85141
1787.6888 85088 85042 84995 84942 84882 84819 84760 84717 84702 84727 84788
1792.9922 84865 84939 85000 85050 85097 85152 85223 85307 85393 85471 85532
1798.2954 85574 85601 85619 85639 85671 85722 85792 85875 85961 86038 86102
1803.5988 86159 86219 86291 86373 86453 86514 86542 86535 86506 86472 86449
1808.9020 86441 86448 86466 86491 86520 86551 86582 86610 86634 86653 86670
1814.2053 86685 86695 86696 86683 86653 86607 86554 86501 86456 86416 86374
1819.5085 86322 86263 86204 86161 86141 86137 86132 86105 86050 85985 85944
1824.8119 85968 86068 86206 86327 86398 86415 86395 86364 86352 86394 86506
1830.1151 86664 86822 86945 87030 87088 87134 87184 87245 87311 87369 87402
1835.4185 87408 87396 87388 87404 87448 87507 87558 87581 87572 87538 87493
1840.7217 87451 87418 87398 87388 87387 87390 87394 87398 87402 87413 87434
1846.0250 87464 87500 87534 87561 87574 87574 87564 87549 87535 87527 87532
1851.3282 87554 87591 87633 87667 87681 87666 87622 87554 87471 87382 87297
1856.6316 87222 87161 87111 87074 87048 87036 87033 87030 87014 86974 86911
1861.9348 86836 86767 86716 86685 86669 86659 86650 86634 86601 86530 86407
1867.2382 86235 86048 85907 85873 85956 86098 86221 86282 86280 86241 86190
1872.5414 86144 86100 86047 85979 85905 85839 85797 85785 85791 85801 85800
1877.8447 85781 85746 85704 85665 85636 85624 85630 85651 85675 85687 85672
1883.1479 85627 85564 85502 85461 85451 85462 85473 85460 85414 85337 85246
1888.4513 85161 85097 85060 85039 85020 84992 84952 84898 84826 84736 84634
1893.7545 84537 84474 84467 84518 84605 84695 84765 84817 84863 84913 84956
1899.0579 84964 84911 84797 84651 84521 84446 84432 84456 84480 84474 84431
1904.3611 84358 84275 84194 84127 84078 84048 84027 83990 83906 83756 83549
1909.6644 83331 83162 83081 83080 83109 83098 83000 82813 82588 82399 82306
1914.9677 82319 82401 82492 82547 82552 82534 82542 82610 82730 82865 82982
1920.2710 83064 83107 83117 83108 83101 83126 83202 83327 83479 83632 83774
1925.5742 83911 84058 84223 84388 84512 84553 84490 84344 84166 84010 83908
1930.8776 83864 83861 83876 83900 83925 83946 83954 83946 83932 83938 83996
1936.1808 84123 84311 84531 84745 84925 85065 85177 85279 85387 85503 85616
1941.4841 85703 85735 85693 85595 85487 85428 85455 85580 85778 85995 86163
1946.7874 86232 86196 86083 85944 85829 85775 85800 85891 86004 86082 86075
1952.0907 85975 85825 85696 85651 85703 85803 85872 85842 85703 85494 85285
1957.3939 85142 85111 85209 85410 85651 85849 85941 85930 85894 85938 86123
1962.6973 86405 86659 86737 86565 86174 85668 85151 84683 84286 83977 83791
