##TITLE= STDPROPOLPIDROSSIBENZOATO
##JCAMP-DX= 4.24
##DATA TYPE= INFRARED SPECTRUM
##ORIGIN= JASCO
##OWNER= 
##DATE= 22/03/30
##TIME= 18:26:38
##SPECTROMETER/DATA SYSTEM= 
##RESOLUTION= 
##DELTAX=   0.48211674
##XUNITS= 1/CM
##YUNITS= TRANSMITTANCE
##XFACTOR= 1.00000
##YFACTOR= 1E-005
##FIRSTX=   599.7532
##LASTX=  4000.1226
##NPOINTS=     7054
##FIRSTY=      0.66481
##MAXY=      0.97032
##MINY=      0.44215
##XYDATA= (X++(Y..Y))
599.7532 66481 66408 66272 66120 65988 65883 65788 65691 65587 65464 65286
605.0565 65000 64570 64007 63376 62769 62259 61870 61573 61311 61025 60669
610.3598 60214 59653 59008 58334 57702 57184 56822 56619 56541 56524 56485
615.6631 56326 55943 55253 54244 53023 51822 50949 50705 51326 52929 55463
620.9664 58671 62120 65323 67904 69703 70773 71298 71496 71547 71550 71527
626.2697 71444 71256 70937 70500 69987 69449 68919 68396 67855 67276 66674
631.5729 66108 65650 65337 65128 64911 64549 63946 63095 62073 61011 60053
636.8762 59329 58947 58994 59505 60442 61682 63036 64310 65363 66133 66628
642.1795 66891 66968 66898 66721 66481 66228 66003 65824 65680 65537 65357
647.4828 65116 64825 64524 64258 64053 63897 63754 63591 63397 63185 62974
652.7861 62780 62610 62467 62359 62287 62233 62152 62000 61756 61450 61148
658.0894 60911 60766 60692 60646 60594 60531 60469 60415 60356 60275 60161
663.3926 60024 59881 59738 59579 59375 59093 58700 58175 57548 57086 57375
668.6959 58341 59113 59447 59519 59478 59409 59350 59304 59252 59166 59043
673.9992 58916 58839 58851 58945 59067 59142 59130 59056 59011 59093 59354
679.3025 59758 60188 60495 60555 60318 59818 59153 58435 57766 57212 56807
684.6058 56553 56425 56376 56345 56257 56030 55589 54908 54037 53112 52301
689.9091 51736 51460 51409 51447 51420 51221 50819 50252 49597 48949 48408
695.2123 48071 48029 48354 49086 50214 51653 53253 54830 56223 57352 58238
700.5156 58987 59730 60550 61442 62313 63046 63571 63907 64145 64388 64698
705.8189 65081 65515 65978 66456 66934 67376 67736 67981 68112 68170 68217
711.1222 68312 68483 68730 69031 69357 69682 69990 70280 70563 70853 71163
716.4255 71487 71807 72100 72343 72530 72665 72769 72864 72975 73114 73283
721.7288 73478 73693 73922 74158 74382 74575 74717 74811 74873 74926 74982
727.0320 75027 75035 74990 74910 74847 74854 74959 75138 75333 75494 75612
732.3353 75725 75884 76111 76377 76618 76777 76836 76831 76821 76859 76965
737.6386 77131 77337 77572 77841 78150 78503 78883 79264 79610 79896 80120
742.9419 80311 80525 80824 81240 81745 82249 82640 82837 82838 82709 82530
748.2452 82335 82086 81705 81138 80406 79584 78753 77932 77078 76123 75035
753.5485 73834 72573 71299 70031 68784 67599 66560 65763 65271 65074 65088
758.8517 65208 65365 65559 65832 66214 66674 67116 67421 67514 67406 67189
764.1550 66969 66804 66672 66481 66118 65488 64538 63265 61703 59911 57968
769.4583 55966 54018 52257 50828 49866 49477 49719 50593 52048 53997 56334
774.7616 58945 61715 64527 67263 69815 72101 74079 75742 77101 78174 78979
780.0649 79535 79880 80071 80172 80238 80292 80335 80356 80352 80339 80340
785.3682 80373 80432 80492 80524 80512 80461 80384 80294 80193 80079 79954
790.6714 79835 79749 79720 79753 79828 79910 79962 79971 79941 79897 79858
795.9747 79827 79789 79724 79617 79477 79325 79183 79059 78942 78809 78639
801.2780 78417 78135 77788 77380 76926 76457 76012 75627 75313 75057 74841
806.5813 74659 74535 74521 74666 75000 75511 76149 76842 77511 78092 78544
811.8846 78858 79049 79150 79189 79181 79126 79023 78886 78750 78665 78669
817.1879 78770 78939 79120 79260 79331 79342 79324 79302 79279 79230 79120
822.4911 78933 78679 78397 78129 77900 77704 77517 77308 77052 76736 76348
827.7944 75872 75283 74549 73647 72574 71365 70113 68961 68081 67622 67654
833.0977 68144 68962 69930 70887 71728 72414 72951 73353 73626 73759 73736
838.4010 73549 73198 72694 72052 71286 70401 69390 68226 66861 65233 63285
843.7043 60994 58388 55564 52683 49949 47585 45799 44762 44586 45310 46890
849.0076 49203 52061 55243 58525 61713 64662 67281 69522 71369 72832 73946
854.3109 74772 75384 75857 76241 76551 76769 76869 76834 76673 76418 76118
859.6141 75822 75579 75429 75411 75554 75871 76351 76955 77627 78300 78908
864.9174 79398 79743 79944 80032 80052 80049 80052 80070 80092 80101 80082
870.2207 80033 79957 79864 79765 79669 79585 79516 79461 79419 79391 79377
875.5240 79378 79386 79382 79348 79272 79163 79044 78943 78871 78822 78774
880.8273 78708 78619 78514 78405 78293 78171 78030 77868 77689 77494 77273
886.1306 76999 76644 76199 75691 75177 74731 74422 74290 74338 74533 74822
891.4338 75148 75464 75747 75991 76203 76389 76552 76686 76793 76878 76956
896.7371 77034 77110 77168 77187 77157 77088 77005 76939 76909 76916 76946
902.0404 76977 76992 76980 76941 76884 76817 76752 76690 76629 76557 76468
907.3437 76361 76247 76138 76043 75958 75869 75757 75609 75421 75199 74954
912.6470 74693 74423 74146 73866 73592 73341 73143 73031 73037 73178 73447
917.9503 73820 74264 74744 75233 75711 76155 76543 76856 77083 77224 77293
923.2535 77307 77287 77247 77199 77149 77100 77048 76991 76924 76847 76762
928.5568 76674 76581 76483 76378 76267 76152 76036 75920 75801 75676 75546
933.8601 75408 75266 75123 74980 74841 74709 74588 74480 74388 74316 74266
939.1634 74239 74234 74242 74256 74268 74271 74262 74236 74182 74090 73954
944.4667 73774 73563 73334 73094 72845 72583 72311 72037 71773 71522 71274
949.7700 71011 70723 70420 70130 69880 69678 69505 69326 69117 68880 68643
955.0732 68435 68269 68128 67975 67776 67510 67170 66755 66262 65689 65040
960.3765 64338 63612 62896 62213 61575 60982 60432 59927 59475 59096 58824
965.6798 58702 58777 59087 59653 60480 61563 62886 64426 66145 67989 69887
970.9831 71768 73567 75234 76732 78034 79127 80011 80704 81238 81644 81944
976.2864 82149 82263 82297 82268 82199 82110 82015 81919 81823 81726 81625
981.5897 81513 81382 81228 81052 80865 80683 80513 80357 80212 80075 79954
986.8929 79858 79792 79750 79710 79647 79543 79401 79241 79090 78966 78871
992.1962 78790 78702 78594 78465 78325 78188 78066 77960 77866 77775 77675
997.4995 77556 77411 77242 77059 76878 76718 76588 76482 76382 76264 76111
1002.8028 75919 75699 75472 75256 75059 74877 74695 74498 74280 74044 73803
1008.1061 73575 73372 73209 73095 73043 73061 73160 73346 73626 74005 74476
1013.4094 75018 75591 76140 76610 76961 77178 77274 77273 77208 77105 76987
1018.7126 76868 76758 76657 76558 76449 76320 76174 76021 75881 75765 75678
1024.0160 75609 75540 75453 75338 75195 75036 74879 74739 74625 74534 74457
1029.3192 74379 74289 74179 74046 73892 73719 73530 73328 73116 72897 72669
1034.6226 72432 72184 71926 71665 71405 71147 70881 70594 70277 69938 69602
1039.9258 69310 69101 68998 68998 69082 69230 69426 69669 69961 70295 70654
1045.2291 71013 71351 71656 71935 72200 72466 72739 73016 73284 73525 73725
1050.5323 73875 73978 74042 74081 74103 74109 74095 74054 73984 73892 73789
1055.8357 73688 73597 73518 73442 73355 73246 73113 72962 72807 72659 72526
1061.1389 72406 72292 72180 72073 71977 71897 71832 71772 71709 71637 71563
1066.4423 71494 71435 71383 71329 71266 71195 71118 71042 70964 70879 70781
1071.7455 70664 70530 70384 70232 70079 69935 69807 69703 69624 69559 69493
1077.0488 69407 69287 69132 68952 68760 68573 68401 68248 68111 67983 67854
1082.3521 67717 67565 67394 67207 67004 66791 66571 66355 66150 65968 65813
1087.6554 65683 65569 65459 65341 65209 65064 64909 64744 64564 64361 64130
1092.9586 63871 63592 63307 63022 62738 62444 62123 61763 61359 60916 60444
1098.2620 59954 59450 58932 58400 57855 57303 56759 56239 55757 55327 54958
1103.5652 54666 54472 54407 54513 54827 55372 56139 57082 58115 59135 60038
1108.8685 60751 61240 61505 61574 61482 61261 60940 60549 60113 59660 59210
1114.1718 58773 58350 57937 57534 57146 56785 56476 56242 56106 56077 56147
1119.4751 56292 56480 56686 56913 57193 57581 58134 58890 59845 60957 62151
1124.7783 63342 64458 65446 66282 66964 67502 67913 68212 68413 68522 68545
1130.0817 68485 68345 68131 67854 67525 67155 66751 66317 65854 65362 64844
1135.3849 64301 63737 63155 62557 61947 61329 60703 60067 59417 58751 58075
1140.6882 57402 56753 56152 55622 55190 54890 54762 54847 55176 55758 56573
1145.9915 57574 58695 59857 60982 62004 62870 63553 64047 64368 64539 64585
1151.2948 64521 64358 64100 63755 63336 62863 62358 61839 61317 60791 60256
1156.5980 59701 59119 58509 57872 57210 56520 55798 55037 54236 53398 52534
1161.9014 51659 50786 49923 49071 48228 47393 46574 45794 45097 44546 44222
1167.2046 44215 44619 45518 46970 48994 51557 54570 57896 61360 64776 67977
1172.5079 70832 73260 75226 76736 77829 78568 79029 79296 79441 79525 79587
1177.8112 79641 79686 79704 79674 79579 79408 79159 78834 78440 77984 77476
1183.1145 76925 76342 75740 75132 74532 73950 73394 72870 72382 71934 71526
1188.4177 71155 70816 70497 70187 69875 69551 69216 68870 68520 68171 67825
1193.7211 67484 67144 66806 66468 66132 65800 65475 65159 64851 64547 64242
1199.0243 63931 63609 63278 62939 62599 62263 61933 61609 61287 60962 60632
1204.3276 60297 59964 59637 59317 59002 58689 58372 58050 57721 57388 57049
1209.6309 56702 56341 55962 55560 55136 54691 54230 53755 53273 52790 52316
1214.9342 51855 51409 50973 50536 50092 49639 49183 48738 48315 47923 47565
1220.2374 47245 46966 46734 46555 46432 46367 46363 46424 46558 46774 47076
1225.5408 47461 47920 48446 49028 49667 50365 51125 51946 52817 53725 54652
1230.8440 55589 56534 57493 58470 59462 60460 61449 62415 63352 64260 65134
1236.1473 65969 66756 67490 68170 68805 69406 69978 70517 71011 71444 71802
1241.4506 72077 72270 72388 72441 72440 72395 72312 72199 72061 71903 71736
1246.7539 71569 71412 71264 71118 70958 70771 70548 70293 70019 69736 69452
1252.0571 69162 68857 68527 68169 67785 67385 66973 66550 66111 65649 65161
1257.3605 64649 64122 63586 63044 62493 61925 61332 60712 60066 59403 58731
1262.6637 58055 57377 56700 56039 55426 54902 54503 54239 54079 53957 53799
1267.9670 53555 53236 52893 52591 52366 52218 52113 52002 51843 51610 51299
1273.2703 50917 50475 49982 49450 48896 48341 47808 47317 46889 46549 46319
1278.5736 46225 46281 46496 46864 47371 47998 48729 49548 50447 51420 52454
1283.8768 53531 54624 55704 56748 57746 58693 59593 60444 61242 61984 62672
1289.1802 63317 63931 64526 65099 65632 66099 66481 66779 67030 67302 67687
1294.4834 68280 69153 70341 71827 73545 75396 77270 79070 80728 82205 83486
1299.7867 84572 85473 86203 86776 87206 87502 87672 87720 87643 87435 87085
1305.0900 86587 85940 85152 84236 83207 82081 80878 79622 78339 77044 75739
1310.3933 74408 73028 71574 70031 68405 66723 65029 63370 61782 60283 58885
1315.6965 57600 56442 55431 54585 53923 53460 53211 53179 53356 53713 54221
1320.9999 54852 55596 56446 57396 58434 59542 60696 61878 63073 64266 65447
1326.3031 66599 67708 68760 69747 70672 71549 72397 73240 74091 74954 75826
1331.6064 76710 77607 78520 79443 80361 81258 82125 82965 83785 84583 85345
1336.9097 86048 86677 87236 87744 88224 88686 89113 89476 89759 89964 90109
1342.2130 90207 90266 90287 90269 90214 90123 90000 89845 89661 89449 89215
1347.5162 88965 88707 88444 88176 87895 87589 87243 86849 86405 85922 85412
1352.8196 84883 84334 83760 83155 82529 81899 81282 80686 80116 79581 79101
1358.1228 78702 78408 78231 78172 78221 78370 78619 78987 79495 80138 80848
1363.4261 81518 82064 82470 82766 82983 83139 83229 83235 83143 82949 82666
1368.7294 82313 81915 81486 81032 80556 80059 79546 79015 78460 77873 77251
1374.0327 76623 76046 75578 75246 75054 75015 75155 75506 76075 76822 77659
1379.3359 78487 79230 79850 80342 80718 81001 81214 81376 81496 81579 81624
1384.6393 81636 81618 81574 81495 81366 81165 80898 80597 80296 80007 79726
1389.9425 79443 79156 78870 78604 78374 78191 78063 77998 78012 78116 78301
1395.2458 78523 78738 78931 79117 79332 79626 80054 80637 81309 81958 82519
1400.5491 83007 83473 83951 84446 84940 85418 85883 86359 86865 87382 87854
1405.8524 88232 88514 88735 88931 89127 89325 89514 89676 89797 89874 89910
1411.1556 89913 89891 89854 89804 89739 89653 89543 89404 89235 89038 88822
1416.4590 88598 88383 88183 87987 87759 87448 87039 86596 86185 85821 85486
1421.7622 85154 84797 84386 83894 83323 82712 82107 81519 80926 80299 79623
1427.0656 78906 78167 77414 76624 75745 74744 73662 72598 71629 70740 69856
1432.3688 68900 67857 66787 65788 64922 64180 63513 62863 62233 61738 61491
1437.6721 61470 61605 61875 62301 62902 63677 64590 65589 66626 67675 68722
1442.9753 69760 70786 71797 72782 73721 74600 75433 76283 77247 78397 79683
1448.2787 80908 81883 82577 83070 83457 83792 84085 84311 84439 84456 84374
1453.5819 84214 83994 83723 83405 83041 82637 82221 81881 81723 81756 81893
1458.8853 82047 82170 82252 82304 82349 82411 82507 82643 82832 83102 83514
1464.1885 84125 84892 85622 86124 86375 86444 86385 86202 85869 85375 84743
1469.4918 84016 83216 82319 81265 80058 78981 78728 79707 81365 82987 84337
1474.7950 85479 86533 87567 88536 89325 89871 90223 90469 90682 90896 91119
1480.0984 91338 91533 91692 91808 91887 91937 91967 91978 91975 91960 91933
1485.4016 91896 91850 91794 91729 91660 91592 91531 91468 91389 91274 91119
1490.7050 90954 90805 90673 90548 90421 90292 90167 90050 89939 89824 89688
1496.0082 89526 89355 89199 89063 88935 88804 88668 88539 88427 88334 88254
1501.3115 88181 88108 88026 87933 87825 87704 87572 87427 87257 87032 86709
1506.6147 86335 86040 85822 85596 85322 85005 84662 84306 83935 83536 83096
1511.9181 82617 82117 81620 81131 80644 80143 79618 79056 78438 77757 77080
1517.2213 76557 76278 76224 76359 76685 77278 78343 80255 83182 86228 88270
1522.5247 89379 90050 90552 90979 91359 91704 92008 92250 92409 92485 92494
1527.8279 92457 92385 92283 92155 92010 91862 91725 91609 91519 91445 91368
1533.1312 91259 91112 90949 90796 90656 90523 90390 90257 90126 89998 89869
1538.4344 89728 89562 89392 89273 89205 89131 89015 88849 88653 88456 88273
1543.7378 88102 87929 87741 87538 87325 87108 86884 86651 86406 86157 85914
1549.0410 85687 85480 85279 85065 84836 84605 84386 84189 84030 83925 83885
1554.3444 83878 83847 83763 83636 83487 83336 83206 83156 83304 83694 83853
1559.6476 83613 83301 83036 82812 82609 82414 82222 82034 81852 81681 81516
1564.9509 81345 81159 80957 80750 80548 80353 80163 79968 79741 79464 79155
1570.2542 78859 78590 78326 78044 77727 77378 77016 76669 76358 76083 75820
1575.5575 75505 75064 74517 73969 73461 72965 72447 71887 71284 70647 69988
1580.8607 69305 68584 67805 66953 66024 65025 63972 62886 61795 60735 59751
1586.1641 58901 58258 57907 57932 58398 59330 60695 62402 64307 66241 68039
1591.4674 69580 70793 71660 72190 72408 72347 72054 71589 71018 70387 69718
1596.7706 69011 68262 67471 66646 65799 64945 64096 63268 62476 61737 61065
1602.0740 60471 59969 59578 59311 59182 59204 59400 59800 60429 61293 62370
1607.3772 63630 65066 66708 68584 70667 72842 74955 76906 78690 80360 81963
1612.6805 83489 84866 86019 86929 87640 88246 88869 89615 90436 91075 91392
1617.9838 91488 91495 91480 91466 91450 91422 91375 91306 91220 91122 91015
1623.2871 90889 90735 90555 90360 90155 89943 89720 89483 89232 88977 88732
1628.5903 88513 88319 88148 87994 87852 87717 87584 87448 87309 87168 87036
1633.8937 86929 86890 86989 87256 87567 87760 87826 87830 87816 87794 87758
1639.1969 87697 87605 87482 87333 87161 86968 86754 86523 86279 86027 85770
1644.5002 85502 85209 84876 84495 84084 83677 83277 82863 82424 81973 81522
1649.8035 81079 80641 80200 79753 79291 78755 77899 76442 75039 74106 73382
1655.1068 72697 71982 71209 70364 69452 68492 67505 66501 65487 64477 63496
1660.4100 62567 61682 60798 59837 58765 57670 56711 55964 55388 54915 54504
1665.7134 54142 53832 53578 53391 53305 53385 53696 54204 54749 55210 55613
1671.0166 56027 56458 56838 57099 57232 57293 57393 57695 58343 59249 60056
1676.3199 60566 60865 61096 61352 61694 62172 62821 63617 64448 65169 65693
1681.6232 66025 66218 66369 66715 67867 70468 73213 74542 75030 75380 75868
1686.9265 76596 77615 78942 80533 82280 84037 85684 87164 88460 89572 90502
1692.2297 91262 91872 92358 92747 93074 93395 93798 94353 94941 95335 95511
1697.5331 95570 95588 95600 95625 95686 95805 95931 95989 95996 95984 95966
1702.8363 95947 95932 95931 95957 96017 96105 96209 96305 96377 96422 96447
1708.1396 96465 96488 96523 96572 96627 96677 96713 96735 96750 96766 96794
1713.4429 96842 96909 96979 97026 97032 97004 96957 96906 96860 96831 96821
1718.7462 96822 96827 96832 96834 96832 96825 96814 96807 96811 96829 96856
1724.0494 96878 96886 96879 96863 96847 96838 96839 96844 96847 96846 96844
1729.3528 96847 96856 96865 96861 96839 96801 96759 96728 96742 96826 96932
1734.6560 96967 96934 96874 96808 96746 96689 96641 96605 96588 96588 96594
1739.9594 96586 96561 96529 96507 96505 96523 96549 96560 96539 96490 96436
1745.2626 96396 96380 96388 96419 96464 96516 96566 96609 96643 96669 96690
1750.5659 96706 96715 96713 96697 96668 96630 96586 96539 96492 96447 96407
1755.8691 96373 96344 96323 96310 96305 96304 96301 96294 96280 96257 96224
1761.1725 96181 96129 96075 96026 95989 95966 95961 95974 96003 96039 96073
1766.4757 96095 96099 96079 96037 95985 95936 95900 95881 95881 95906 95960
1771.7791 96033 96087 96096 96067 96024 95978 95931 95884 95839 95797 95757
1777.0823 95715 95668 95616 95563 95519 95492 95485 95491 95491 95475 95443
1782.3856 95407 95379 95368 95379 95409 95449 95490 95529 95568 95609 95651
1787.6888 95691 95724 95750 95770 95785 95794 95792 95774 95745 95719 95713
1792.9922 95727 95747 95765 95780 95795 95813 95829 95834 95822 95798 95771
1798.2954 95755 95760 95786 95823 95853 95862 95848 95815 95771 95724 95681
1803.5988 95647 95624 95611 95608 95616 95636 95668 95703 95728 95733 95712
1808.9020 95672 95623 95579 95546 95521 95499 95476 95460 95458 95476 95513
1814.2053 95557 95592 95610 95610 95602 95597 95600 95611 95621 95620 95609
1819.5085 95591 95571 95548 95512 95455 95376 95289 95219 95191 95222 95311
1824.8119 95426 95518 95549 95527 95484 95444 95417 95406 95405 95409 95415
1830.1151 95423 95433 95440 95438 95418 95379 95324 95266 95223 95208 95229
1835.4185 95281 95353 95434 95509 95563 95588 95579 95539 95476 95403 95332
1840.7217 95277 95244 95232 95236 95252 95282 95330 95397 95465 95516 95541
1846.0250 95537 95506 95452 95387 95326 95284 95259 95238 95202 95142 95062
1851.3282 94980 94914 94880 94880 94910 94960 95018 95074 95116 95133 95124
1856.6316 95095 95062 95041 95042 95061 95088 95109 95118 95119 95118 95119
1861.9348 95115 95096 95047 94966 94861 94748 94641 94551 94480 94430 94411
1867.2382 94444 94558 94754 94986 95162 95210 95133 94990 94845 94744 94703
1872.5414 94708 94727 94728 94693 94628 94554 94498 94473 94483 94517 94562
1877.8447 94609 94655 94692 94710 94695 94635 94532 94406 94292 94223 94219
1883.1479 94275 94367 94465 94541 94582 94588 94567 94528 94478 94425 94374
1888.4513 94334 94312 94314 94338 94375 94418 94463 94508 94552 94597 94646
1893.7545 94700 94754 94790 94776 94690 94527 94313 94087 93890 93752 93685
1899.0579 93687 93744 93841 93959 94080 94178 94224 94208 94137 94040 93955
1904.3611 93905 93897 93920 93960 94006 94049 94074 94059 93986 93849 93673
1909.6644 93499 93373 93316 93322 93369 93427 93472 93478 93420 93280 93061
1914.9677 92795 92535 92333 92229 92250 92391 92616 92865 93093 93291 93471
1920.2710 93646 93815 93969 94090 94165 94195 94195 94179 94157 94129 94099
1925.5742 94078 94082 94125 94206 94302 94383 94427 94434 94428 94442 94497
1930.8776 94586 94679 94739 94746 94705 94642 94589 94562 94561 94572 94577
1936.1808 94566 94532 94474 94402 94341 94322 94370 94483 94631 94758 94811
1941.4841 94754 94604 94425 94292 94233 94221 94215 94191 94154 94129 94144
1946.7874 94201 94273 94323 94316 94246 94136 94034 93994 94045 94174 94327
1952.0907 94437 94458 94383 94250 94111 94011 93971 93987 94038 94104 94172
1957.3939 94241 94327 94452 94630 94835 94994 95009 94822 94469 94078 93810
1962.6973 93770 93957 94276 94600 94843 94987 95062 95093 95080 95010 94897
