##TITLE= INCCHINIDINASOLFATO
##JCAMP-DX= 4.24
##DATA TYPE= INFRARED SPECTRUM
##ORIGIN= JASCO
##OWNER= 
##DATE= 22/04/13
##TIME= 16:05:15
##SPECTROMETER/DATA SYSTEM= 
##RESOLUTION= 
##DELTAX=   0.48211674
##XUNITS= 1/CM
##YUNITS= TRANSMITTANCE
##XFACTOR= 1.00000
##YFACTOR= 1E-005
##FIRSTX=   599.7532
##LASTX=  4000.1226
##NPOINTS=     7054
##FIRSTY=      0.72890
##MAXY=      0.96510
##MINY=      0.50722
##XYDATA= (X++(Y..Y))
599.7532 72890 71844 70815 69855 68954 68071 67182 66307 65495 64801 64256
605.0565 63866 63641 63621 63877 64471 65408 66605 67911 69152 70195 70970
610.3598 71464 71695 71707 71562 71340 71115 70920 70724 70443 69986 69304
615.6631 68427 67452 66510 65720 65153 64811 64642 64560 64470 64276 63911
620.9664 63355 62668 61972 61402 61042 60893 60887 60942 61024 61168 61453
626.2697 61939 62631 63479 64418 65406 66435 67517 68655 69823 70964 72002
631.5729 72864 73492 73863 73983 73888 73630 73264 72844 72408 71977 71548
636.8762 71094 70592 70040 69490 69047 68839 68957 69411 70114 70929 71740
642.1795 72513 73306 74210 75267 76420 77525 78428 79049 79418 79643 79833
647.4828 80042 80259 80443 80582 80704 80851 81029 81179 81198 81001 80577
652.7861 80011 79452 79042 78861 78901 79088 79327 79543 79702 79805 79865
658.0894 79875 79811 79647 79387 79079 78801 78631 78617 78765 79043 79398
663.3926 79768 80098 80351 80516 80608 80639 80594 80388 79817 78645 77296
668.6959 76989 77706 78637 79388 79833 79910 79603 78976 78190 77442 76870
673.9992 76499 76248 76001 75674 75277 74916 74761 74973 75648 76795 78340
679.3025 80146 82021 83727 85007 85662 85650 85140 84456 83908 83613 83409
684.6058 82950 81922 80295 78394 76750 75819 75810 76678 78223 80194 82315
689.9091 84252 85598 85950 85102 83242 81002 79267 78842 80118 82931 86619
695.2123 90267 93010 94273 93894 92129 89551 86872 84733 83531 83347 83983
700.5156 85062 86157 86925 87207 87056 86674 86301 86093 86060 86085 86002
705.8189 85699 85180 84554 83963 83508 83210 83035 82938 82898 82902 82905
711.1222 82810 82490 81843 80845 79547 78042 76405 74683 72912 71173 69624
716.4255 68484 67967 68207 69219 70918 73162 75778 78556 81243 83601 85482
721.7288 86865 87824 88466 88889 89168 89359 89503 89626 89743 89852 89942
727.0320 90001 90021 90005 89965 89911 89854 89794 89733 89673 89619 89579
732.3353 89557 89550 89552 89556 89558 89548 89512 89432 89294 89092 88840
737.6386 88555 88258 87960 87670 87395 87145 86927 86733 86534 86289 85957
742.9419 85520 84983 84376 83733 83084 82447 81839 81272 80764 80328 79969
748.2452 79675 79424 79191 78969 78767 78615 78544 78577 78710 78914 79136
753.5485 79323 79432 79442 79352 79175 78924 78611 78254 77886 77565 77354
758.8517 77286 77332 77400 77367 77135 76671 76017 75274 74556 73945 73479
764.1550 73158 72975 72942 73097 73496 74190 75199 76487 77958 79479 80920
769.4583 82198 83302 84270 85155 85981 86733 87364 87837 88150 88345 88485
774.7616 88628 88800 88994 89175 89308 89376 89382 89339 89254 89117 88903
780.0649 88594 88206 87795 87445 87236 87211 87361 87635 87965 88290 88563
785.3682 88750 88825 88767 88580 88296 87971 87655 87375 87111 86820 86457
790.6714 86005 85481 84924 84374 83853 83364 82886 82384 81808 81106 80241
795.9747 79209 78067 76936 75984 75388 75288 75734 76667 77931 79311 80599
801.2780 81645 82391 82863 83142 83317 83450 83568 83676 83770 83853 83934
806.5813 84022 84122 84237 84360 84488 84613 84721 84799 84834 84818 84754
811.8846 84652 84525 84382 84225 84048 83846 83620 83386 83166 82979 82830
817.1879 82698 82553 82363 82119 81839 81554 81292 81062 80850 80630 80379
822.4911 80077 79710 79263 78729 78110 77421 76684 75911 75109 74288 73479
827.7944 72725 72049 71415 70725 69873 68845 67792 67027 66907 67670 69298
833.0977 71505 73850 75917 77457 78433 78959 79207 79317 79365 79365 79302
838.4010 79151 78901 78553 78132 77672 77209 76764 76334 75895 75424 74913
843.7043 74378 73857 73388 73002 72719 72550 72508 72600 72822 73145 73515
849.0076 73870 74146 74297 74290 74101 73709 73096 72255 71197 69948 68546
854.3109 67048 65529 64091 62862 61972 61532 61605 62189 63219 64585 66150
859.6141 67774 69327 70698 71803 72590 73044 73185 73068 72779 72415 72070
864.9174 71816 71697 71739 71974 72453 73241 74389 75900 77713 79709 81748
870.2207 83707 85510 87120 88522 89701 90634 91302 91701 91860 91828 91669
875.5240 91436 91168 90887 90604 90324 90051 89789 89542 89314 89112 88940
880.8273 88794 88659 88512 88323 88069 87736 87318 86812 86214 85524 84751
886.1306 83923 83096 82347 81764 81428 81390 81662 82207 82954 83812 84690
891.4338 85520 86260 86897 87431 87865 88196 88419 88535 88557 88512 88433
896.7371 88345 88262 88184 88103 88014 87913 87801 87681 87547 87392 87205
902.0404 86982 86723 86443 86158 85883 85621 85362 85087 84772 84404 83985
907.3437 83534 83079 82643 82237 81847 81445 80988 80438 79766 78968 78071
912.6470 77132 76240 75497 74993 74787 74884 75242 75789 76448 77157 77873
917.9503 78567 79207 79762 80203 80510 80672 80684 80544 80251 79815 79258
923.2535 78616 77928 77229 76545 75895 75298 74768 74314 73933 73606 73312
928.5568 73023 72715 72352 71888 71269 70458 69458 68328 67186 66183 65466
933.8601 65142 65260 65798 66679 67791 69011 70232 71368 72365 73189 73821
939.1634 74256 74500 74581 74540 74432 74313 74233 74229 74322 74509 74764
944.4667 75037 75268 75403 75413 75304 75113 74902 74742 74707 74859 75238
949.7700 75845 76635 77527 78433 79282 80046 80732 81359 81931 82425 82800
955.0732 83025 83102 83067 82981 82905 82881 82926 83044 83226 83456 83709
960.3765 83951 84147 84266 84294 84234 84099 83903 83660 83372 83035 82634
965.6798 82146 81544 80808 79937 78954 77907 76869 75931 75201 74794 74809
970.9831 75299 76240 77524 78977 80406 81647 82606 83263 83651 83829 83849
976.2864 83747 83545 83255 82889 82462 81988 81487 80975 80463 79954 79437
981.5897 78897 78323 77713 77080 76439 75802 75167 74519 73843 73132 72392
986.8929 71642 70912 70233 69643 69187 68906 68829 68953 69232 69582 69899
992.1962 70092 70102 69920 69578 69133 68647 68175 67765 67467 67330 67402
997.4995 67710 68246 68955 69742 70500 71142 71626 71960 72192 72379 72567
1002.8028 72778 73004 73216 73375 73439 73374 73156 72776 72237 71557 70768
1008.1061 69906 69011 68112 67227 66366 65542 64779 64112 63573 63172 62888
1013.4094 62669 62447 62159 61761 61224 60537 59694 58705 57600 56437 55298
1018.7126 54282 53481 52972 52805 53005 53570 54474 55665 57061 58562 60060
1024.0160 61454 62660 63617 64289 64659 64737 64557 64177 63667 63090 62494
1029.3192 61900 61308 60714 60117 59520 58928 58334 57725 57085 56404 55686
1034.6226 54948 54212 53502 52833 52222 51685 51244 50923 50745 50722 50855
1039.9258 51132 51529 52017 52560 53118 53646 54094 54417 54585 54599 54490
1045.2291 54320 54162 54088 54148 54375 54781 55370 56136 57070 58154 59358
1050.5323 60642 61955 63246 64466 65578 66557 67392 68080 68622 69018 69261
1055.8357 69346 69271 69045 68692 68243 67734 67199 66666 66163 65723 65385
1061.1389 65189 65164 65315 65627 66060 66566 67095 67603 68049 68401 68631
1066.4423 68717 68641 68393 67974 67398 66699 65923 65131 64382 63734 63236
1071.7455 62923 62820 62925 63207 63600 64015 64353 64531 64502 64263 63854
1077.0488 63343 62817 62362 62051 61940 62052 62379 62879 63487 64126 64729
1082.3521 65246 65650 65928 66074 66079 65935 65637 65194 64628 63977 63280
1087.6554 62575 61886 61221 60576 59942 59312 58688 58083 57510 56985 56521
1092.9586 56128 55823 55623 55546 55601 55782 56076 56457 56896 57367 57842
1098.2620 58298 58723 59117 59494 59875 60283 60731 61225 61757 62317 62892
1103.5652 63471 64045 64609 65161 65697 66213 66704 67159 67570 67932 68245
1108.8685 68512 68734 68912 69041 69113 69126 69081 68988 68865 68730 68605
1114.1718 68502 68428 68383 68358 68342 68326 68303 68276 68254 68250 68282
1119.4751 68363 68504 68709 68974 69294 69657 70055 70477 70917 71371 71838
1124.7783 72321 72813 73305 73776 74207 74588 74928 75253 75599 75994 76450
1130.0817 76953 77479 77998 78487 78931 79326 79667 79955 80191 80374 80504
1135.3849 80578 80592 80550 80467 80372 80297 80266 80283 80327 80363 80354
1140.6882 80274 80119 79902 79653 79403 79182 79015 78923 78922 79031 79266
1145.9915 79642 80161 80813 81573 82405 83271 84135 84971 85762 86498 87172
1151.2948 87778 88315 88780 89175 89508 89788 90022 90214 90366 90477 90551
1156.5980 90600 90640 90683 90732 90775 90791 90756 90647 90451 90168 89810
1161.9014 89406 88997 88628 88335 88138 88034 88011 88053 88159 88333 88583
1167.2046 88905 89282 89684 90079 90440 90756 91028 91260 91458 91624 91750
1172.5079 91831 91862 91850 91805 91741 91662 91564 91433 91257 91031 90760
1177.8112 90455 90122 89766 89390 89005 88637 88323 88097 87986 87998 88130
1183.1145 88368 88695 89089 89524 89975 90417 90836 91227 91588 91917 92208
1188.4177 92453 92646 92785 92872 92910 92899 92839 92732 92584 92404 92199
1193.7211 91971 91713 91417 91072 90678 90244 89791 89345 88927 88548 88202
1199.0243 87869 87526 87156 86760 86357 85978 85660 85438 85337 85375 85558
1204.3276 85881 86327 86870 87476 88110 88736 89322 89844 90287 90647 90928
1209.6309 91141 91296 91400 91452 91446 91374 91230 91015 90735 90401 90020
1214.9342 89595 89116 88570 87943 87228 86430 85560 84630 83650 82626 81559
1220.2374 80446 79282 78052 76740 75323 73787 72126 70358 68525 66695 64960
1225.5408 63421 62181 61326 60921 61009 61602 62683 64195 66047 68112 70247
1230.8440 72308 74172 75760 77043 78040 78807 79408 79886 80247 80455 80446
1236.1473 80156 79542 78603 77379 75945 74403 72878 71503 70410 69714 69493
1241.4506 69778 70556 71774 73352 75198 77210 79294 81361 83337 85163 86793
1246.7539 88197 89357 90272 90957 91438 91747 91918 91978 91950 91845 91668
1252.0571 91422 91105 90723 90284 89803 89296 88788 88307 87889 87570 87382
1257.3605 87341 87442 87667 87983 88358 88766 89189 89622 90065 90517 90971
1262.6637 91415 91837 92225 92567 92838 93002 93026 92911 92716 92553 92549
1267.9670 92776 93204 93705 94114 94304 94228 93923 93479 92993 92531 92124
1273.2703 91772 91469 91214 91006 90847 90738 90680 90676 90730 90842 91006
1278.5736 91210 91441 91687 91940 92190 92429 92649 92841 93000 93120 93195
1283.8768 93215 93173 93065 92886 92639 92331 91974 91586 91187 90795 90419
1289.1802 90059 89709 89364 89023 88692 88376 88080 87803 87546 87315 87122
1294.4834 86988 86936 86982 87132 87371 87670 87986 88282 88527 88707 88818
1299.7867 88867 88861 88813 88736 88644 88548 88454 88359 88248 88107 87924
1305.0900 87708 87485 87298 87196 87217 87380 87676 88070 88513 88953 89347
1310.3933 89672 89915 90074 90154 90159 90101 89994 89856 89699 89533 89367
1315.6965 89209 89076 88992 88981 89064 89248 89526 89872 90250 90627 90973
1320.9999 91272 91510 91684 91796 91859 91893 91924 91972 92045 92141 92249
1326.3031 92354 92448 92530 92607 92685 92770 92855 92927 92962 92943 92867
1331.6064 92749 92615 92496 92411 92358 92320 92273 92197 92086 91943 91773
1336.9097 91579 91357 91098 90807 90506 90238 90052 89973 89990 90067 90168
1342.2130 90265 90341 90384 90383 90333 90238 90108 89956 89792 89620 89437
1347.5162 89238 89019 88781 88522 88241 87937 87602 87234 86831 86401 85954
1352.8196 85504 85065 84651 84278 83959 83702 83515 83401 83367 83419 83563
1358.1228 83799 84127 84544 85042 85601 86193 86794 87397 88012 88651 89292
1363.4261 89881 90364 90722 90977 91163 91314 91457 91611 91796 92032 92333
1368.7294 92694 93093 93495 93863 94175 94419 94591 94693 94737 94740 94729
1374.0327 94727 94737 94750 94750 94727 94681 94617 94537 94446 94350 94264
1379.3359 94200 94174 94190 94246 94333 94435 94540 94638 94721 94783 94818
1384.6393 94820 94786 94715 94614 94492 94369 94259 94164 94069 93951 93796
1389.9425 93594 93346 93068 92779 92491 92201 91890 91539 91143 90746 90436
1395.2458 90286 90288 90379 90501 90629 90769 90941 91162 91417 91662 91860
1400.5491 92001 92095 92156 92189 92190 92149 92058 91916 91744 91575 91442
1405.8524 91348 91272 91180 91049 90872 90659 90429 90200 89979 89763 89546
1411.1556 89328 89114 88911 88721 88546 88379 88215 88049 87880 87710 87546
1416.4590 87392 87248 87101 86933 86722 86470 86216 86001 85823 85652 85460
1421.7622 85227 84937 84578 84150 83673 83179 82680 82151 81551 80849 80046
1427.0656 79179 78307 77491 76789 76274 76036 76132 76532 77123 77801 78518
1432.3688 79270 80054 80837 81571 82227 82833 83475 84290 85363 86530 87441
1437.6721 87950 88168 88230 88204 88110 87952 87737 87481 87203 86913 86615
1442.9753 86305 85983 85654 85334 85036 84771 84538 84325 84122 83923 83738
1448.2787 83579 83455 83362 83298 83272 83302 83401 83558 83727 83847 83875
1453.5819 83801 83637 83406 83125 82798 82425 82011 81611 81320 81193 81205
1458.8853 81302 81443 81604 81777 81957 82139 82309 82447 82533 82549 82485
1464.1885 82339 82128 81885 81625 81332 80973 80522 79976 79367 78759 78220
1469.4918 77790 77467 77234 77083 77057 77268 77820 78603 79355 79944 80402
1474.7950 80821 81296 81890 82591 83306 83935 84450 84880 85263 85621 85952
1480.0984 86240 86462 86603 86650 86603 86469 86272 86050 85850 85711 85662
1485.4016 85724 85914 86236 86654 87089 87449 87692 87834 87925 88025 88163
1490.7050 88309 88410 88441 88402 88304 88161 87981 87767 87507 87183 86793
1496.0082 86376 86000 85690 85405 85080 84678 84216 83748 83306 82864 82361
1501.3115 81745 81006 80195 79385 78621 77888 77128 76263 75216 73984 72853
1506.6147 72439 72928 73919 75172 76642 78261 79909 81495 83002 84485 86007
1511.9181 87567 89068 90370 91395 92155 92713 93132 93451 93700 93926 94190
1517.2213 94507 94820 95064 95218 95282 95265 95181 95072 95042 95174 95399
1522.5247 95596 95725 95794 95823 95834 95851 95887 95938 95987 96028 96071
1527.8279 96137 96234 96346 96443 96501 96510 96475 96405 96310 96200 96092
1533.1312 96018 96015 96081 96178 96267 96329 96357 96352 96314 96241 96125
1538.4344 95951 95723 95512 95413 95422 95473 95532 95595 95654 95699 95719
1543.7378 95715 95698 95690 95709 95754 95805 95839 95842 95804 95713 95561
1549.0410 95348 95107 94900 94771 94712 94677 94626 94531 94377 94168 93945
1554.3444 93780 93703 93680 93654 93589 93459 93234 92875 92381 91999 92111
1559.6476 92501 92835 93060 93209 93302 93346 93342 93290 93196 93080 92978
1564.9509 92921 92909 92917 92912 92875 92799 92676 92503 92288 92075 91928
1570.2542 91856 91812 91750 91644 91486 91284 91057 90826 90602 90392 90214
1575.5575 90129 90224 90480 90753 90946 91050 91080 91046 90950 90791 90575
1580.8607 90308 89995 89637 89233 88783 88297 87790 87290 86833 86460 86209
1586.1641 86105 86153 86336 86622 86963 87311 87617 87837 87944 87926 87796
1591.4674 87588 87354 87153 87047 87090 87317 87734 88308 88974 89661 90307
1596.7706 90868 91320 91653 91870 91986 92019 91988 91911 91801 91667 91516
1602.0740 91349 91166 90970 90763 90545 90309 90042 89733 89377 88977 88546
1607.3772 88091 87611 87097 86536 85925 85277 84610 83936 83245 82506 81685
1612.6805 80770 79792 78807 77866 76982 76138 75333 74662 74356 74552 75085
1617.9838 75751 76505 77396 78467 79691 80972 82196 83310 84359 85459 86718
1623.2871 88089 89336 90258 90861 91256 91534 91745 91915 92058 92182 92284
1628.5903 92352 92377 92358 92294 92181 92013 91790 91524 91235 90943 90664
1633.8937 90416 90240 90216 90414 90757 91075 91305 91472 91601 91694 91739
1639.1969 91726 91667 91591 91539 91551 91646 91810 92001 92168 92280 92325
1644.5002 92312 92264 92212 92195 92245 92363 92521 92684 92829 92940 93007
1649.8035 93031 93013 92960 92875 92751 92578 92391 92373 92576 92800 92975
1655.1068 93116 93234 93332 93411 93472 93519 93557 93590 93614 93623 93610
1660.4100 93571 93511 93445 93397 93401 93469 93575 93678 93750 93785 93781
1665.7134 93739 93662 93552 93413 93243 93047 92844 92673 92559 92489 92430
1671.0166 92360 92279 92196 92114 92027 91925 91798 91650 91522 91476 91524
1676.3199 91608 91677 91714 91719 91698 91662 91627 91617 91646 91707 91771
1681.6232 91813 91808 91741 91610 91476 91531 91855 92194 92397 92491 92522
1686.9265 92518 92498 92475 92465 92482 92531 92609 92704 92797 92868 92903
1692.2297 92898 92855 92785 92697 92598 92495 92409 92378 92427 92510 92571
1697.5331 92592 92576 92524 92440 92356 92380 92585 92810 92934 92978 92977
1702.8363 92952 92914 92870 92832 92816 92839 92910 93021 93144 93247 93311
1708.1396 93334 93327 93302 93275 93256 93247 93244 93236 93214 93174 93116
1713.4429 93043 92965 92897 92851 92817 92778 92721 92655 92633 92738 92983
1718.7462 93265 93494 93653 93749 93793 93790 93749 93683 93608 93540 93484
1724.0494 93437 93392 93348 93309 93284 93276 93277 93269 93235 93165 93062
1729.3528 92952 92869 92831 92824 92813 92772 92686 92555 92413 92352 92445
1734.6560 92610 92730 92785 92794 92775 92732 92666 92575 92469 92384 92371
1739.9594 92448 92574 92689 92759 92784 92781 92776 92791 92830 92873 92893
1745.2626 92874 92814 92721 92616 92527 92477 92474 92497 92518 92521 92512
1750.5659 92518 92569 92673 92798 92906 92977 93008 93005 92979 92940 92901
1755.8691 92878 92884 92922 92977 93027 93056 93057 93032 92989 92936 92891
1761.1725 92878 92917 92996 93083 93147 93184 93196 93195 93186 93171 93144
1766.4757 93103 93049 93002 92987 93015 93067 93110 93117 93073 92981 92868
1771.7791 92799 92831 92939 93045 93108 93127 93122 93113 93117 93141 93177
1777.0823 93212 93236 93244 93232 93199 93150 93100 93069 93072 93104 93144
1782.3856 93170 93170 93143 93102 93070 93062 93080 93112 93140 93159 93169
1787.6888 93174 93175 93166 93138 93083 93000 92897 92800 92747 92776 92886
1792.9922 93028 93145 93215 93239 93229 93201 93173 93157 93152 93150 93142
1798.2954 93122 93092 93063 93045 93046 93063 93090 93124 93165 93214 93271
1803.5988 93333 93394 93443 93466 93454 93406 93331 93248 93177 93127 93097
1808.9020 93078 93062 93047 93040 93048 93074 93109 93145 93174 93196 93211
1814.2053 93219 93220 93212 93195 93174 93154 93144 93150 93172 93207 93246
1819.5085 93283 93310 93326 93331 93328 93319 93305 93284 93253 93215 93182
1824.8119 93174 93205 93265 93328 93366 93366 93322 93238 93129 93032 92995
1830.1151 93033 93115 93196 93253 93286 93309 93339 93384 93439 93487 93506
1835.4185 93484 93421 93336 93254 93199 93177 93178 93185 93182 93164 93134
1840.7217 93096 93055 93010 92957 92894 92822 92753 92704 92685 92687 92698
1846.0250 92716 92743 92779 92823 92867 92904 92933 92955 92971 92974 92959
1851.3282 92924 92878 92837 92811 92804 92806 92806 92797 92782 92771 92774
1856.6316 92794 92826 92858 92875 92874 92859 92847 92851 92876 92912 92934
1861.9348 92923 92873 92798 92727 92682 92669 92675 92679 92662 92620 92562
1867.2382 92499 92439 92386 92344 92329 92354 92422 92515 92607 92674 92699
1872.5414 92686 92652 92626 92627 92660 92707 92746 92756 92736 92697 92661
1877.8447 92641 92640 92645 92644 92632 92616 92615 92642 92697 92761 92809
1883.1479 92818 92782 92716 92649 92606 92601 92626 92657 92669 92647 92590
1888.4513 92517 92455 92438 92477 92561 92660 92746 92798 92810 92784 92741
1893.7545 92709 92711 92757 92829 92901 92950 92969 92965 92947 92922 92889
1899.0579 92849 92806 92766 92739 92730 92742 92768 92795 92802 92771 92698
1904.3611 92599 92508 92456 92454 92486 92517 92517 92474 92404 92337 92294
1909.6644 92281 92280 92269 92229 92164 92093 92049 92062 92145 92272 92388
1914.9677 92432 92372 92226 92053 91942 91965 92131 92365 92556 92641 92625
1920.2710 92548 92448 92350 92257 92163 92067 91981 91924 91907 91926 91972
1925.5742 92037 92126 92249 92412 92598 92770 92882 92910 92871 92813 92796
1930.8776 92852 92967 93083 93136 93083 92930 92724 92533 92409 92366 92386
1936.1808 92424 92442 92426 92394 92376 92395 92443 92492 92512 92497 92472
1941.4841 92479 92537 92621 92662 92607 92461 92278 92126 92053 92058 92087
1946.7874 92065 91942 91728 91486 91300 91236 91311 91488 91692 91844 91891
1952.0907 91818 91651 91449 91291 91256 91396 91701 92087 92422 92593 92558
1957.3939 92370 92136 91954 91854 91800 91733 91641 91575 91621 91832 92177
1962.6973 92552 92823 92906 92799 92586 92387 92308 92399 92633 92920 93152
