##TITLE= STDCHINIDINASOLFATO
##JCAMP-DX= 4.24
##DATA TYPE= INFRARED SPECTRUM
##ORIGIN= JASCO
##OWNER= 
##DATE= 22/04/13
##TIME= 16:09:36
##SPECTROMETER/DATA SYSTEM= 
##RESOLUTION= 
##DELTAX=   0.48211674
##XUNITS= 1/CM
##YUNITS= TRANSMITTANCE
##XFACTOR= 1.00000
##YFACTOR= 1E-005
##FIRSTX=   599.7532
##LASTX=  4000.1226
##NPOINTS=     7054
##FIRSTY=      0.75449
##MAXY=      0.97473
##MINY=      0.54738
##XYDATA= (X++(Y..Y))
599.7532 75449 74901 74351 73718 72916 71920 70782 69620 68558 67692 67062
605.0565 66684 66572 66756 67260 68065 69088 70192 71240 72138 72856 73408
610.3598 73811 74060 74137 74038 73802 73503 73217 72979 72765 72508 72137
615.6631 71614 70955 70224 69496 68826 68220 67646 67060 66440 65790 65142
620.9664 64536 64014 63613 63368 63300 63405 63645 63959 64300 64678 65162
626.2697 65836 66729 67768 68803 69675 70303 70727 71074 71478 72003 72616
631.5729 73225 73733 74085 74280 74348 74327 74256 74167 74083 74000 73875
636.8762 73634 73207 72579 71818 71077 70543 70362 70588 71169 71986 72913
642.1795 73863 74808 75750 76684 77588 78427 79187 79884 80544 81172 81733
647.4828 82170 82448 82594 82688 82813 82989 83157 83220 83110 82840 82500
652.7861 82204 82031 81984 82012 82059 82106 82165 82257 82367 82430 82362
658.0894 82098 81636 81043 80434 79930 79625 79569 79768 80196 80797 81494
663.3926 82187 82759 83108 83186 83006 82610 82023 81225 80172 79036 78658
668.6959 79612 81008 82139 82904 83296 83259 82757 81859 80772 79746 78939
673.9992 78355 77912 77550 77316 77332 77703 78423 79368 80352 81219 81899
679.3025 82403 82793 83136 83483 83841 84189 84487 84719 84910 85105 85318
684.6058 85487 85484 85196 84625 83922 83300 82913 82776 82788 82824 82843
689.9091 82917 83161 83624 84224 84781 85118 85155 84939 84600 84284 84095
695.2123 84074 84201 84409 84601 84678 84575 84286 83867 83424 83083 82967
700.5156 83171 83725 84561 85512 86360 86918 87110 86985 86681 86342 86061
705.8189 85863 85732 85645 85589 85560 85547 85531 85487 85393 85228 84971
711.1222 84604 84117 83506 82759 81843 80698 79270 77552 75623 73653 71881
716.4255 70565 69924 70092 71095 72868 75269 78089 81051 83839 86195 87995
721.7288 89261 90090 90588 90849 90958 91013 91103 91278 91524 91776 91960
727.0320 92039 92038 92016 92019 92045 92044 91963 91799 91616 91512 91558
732.3353 91755 92028 92267 92393 92386 92289 92170 92080 92041 92050 92097
737.6386 92171 92254 92310 92296 92177 91960 91690 91437 91251 91131 91029
742.9419 90879 90639 90318 89961 89622 89332 89089 88870 88654 88434 88214
748.2452 88002 87816 87673 87592 87576 87602 87625 87589 87461 87237 86948
753.5485 86638 86351 86115 85941 85809 85676 85481 85176 84759 84290 83875
758.8517 83616 83550 83631 83751 83785 83645 83305 82802 82212 81621 81099
764.1550 80684 80393 80243 80267 80523 81065 81911 83017 84275 85547 86714
769.4583 87712 88539 89224 89795 90256 90594 90798 90889 90918 90955 91059
774.7616 91256 91527 91820 92066 92212 92238 92162 92023 91859 91676 91453
780.0649 91156 90779 90359 89970 89698 89598 89672 89876 90136 90386 90579
785.3682 90692 90722 90672 90558 90398 90215 90021 89812 89567 89261 88882
790.6714 88444 87981 87529 87113 86729 86348 85932 85439 84842 84119 83256
795.9747 82252 81135 79985 78942 78189 77904 78193 79036 80282 81691 83009
801.2780 84046 84726 85083 85225 85273 85312 85379 85472 85573 85678 85796
806.5813 85945 86135 86357 86585 86784 86925 86993 86994 86944 86864 86769
811.8846 86665 86555 86436 86310 86175 86029 85865 85678 85471 85257 85055
817.1879 84883 84746 84635 84530 84407 84249 84049 83805 83518 83190 82823
822.4911 82419 81976 81493 80969 80405 79804 79162 78470 77722 76929 76132
827.7944 75386 74720 74102 73438 72626 71647 70640 69895 69750 70439 71968
833.0977 74088 76396 78487 80092 81133 81688 81904 81929 81859 81738 81579
838.4010 81383 81156 80908 80644 80358 80030 79638 79171 78637 78060 77472
843.7043 76901 76371 75909 75548 75319 75240 75304 75482 75737 76043 76388
849.0076 76762 77136 77449 77616 77554 77206 76562 75649 74515 73214 71795
854.3109 70315 68845 67480 66327 65499 65087 65150 65695 66671 67976 69473
859.6141 71016 72479 73764 74806 75563 76016 76171 76067 75784 75424 75089
864.9174 74857 74775 74866 75156 75686 76499 77619 79031 80672 82453 84277
870.2207 86062 87741 89257 90561 91618 92415 92968 93313 93494 93544 93482
875.5240 93322 93082 92791 92486 92197 91942 91716 91505 91295 91084 90877
880.8273 90686 90515 90351 90175 89958 89676 89307 88837 88258 87573 86806
886.1306 86006 85242 84591 84121 83885 83908 84191 84713 85427 86259 87120
891.4338 87918 88585 89100 89482 89775 90020 90229 90393 90493 90523 90497
896.7371 90444 90390 90349 90318 90283 90232 90157 90057 89933 89780 89593
902.0404 89364 89090 88781 88458 88142 87850 87575 87291 86966 86578 86134
907.3437 85665 85211 84801 84429 84065 83660 83172 82575 81863 81051 80171
912.6470 79280 78457 77793 77367 77226 77364 77736 78275 78919 79621 80346
917.9503 81056 81705 82247 82646 82891 82989 82958 82814 82564 82213 81768
923.2535 81245 80664 80049 79420 78801 78216 77688 77234 76861 76555 76289
928.5568 76023 75713 75308 74763 74044 73143 72089 70952 69839 68881 68205
933.8601 67907 68033 68560 69410 70467 71604 72718 73739 74633 75388 75997
939.1634 76450 76735 76856 76836 76728 76596 76498 76476 76547 76703 76921
944.4667 77163 77381 77523 77552 77463 77286 77088 76949 76947 77134 77530
949.7700 78127 78885 79747 80644 81514 82310 83011 83613 84121 84532 84834
955.0732 85016 85079 85051 84977 84908 84885 84933 85062 85269 85538 85844
960.3765 86149 86417 86613 86722 86738 86668 86516 86286 85979 85596 85137
965.6798 84599 83979 83271 82476 81602 80674 79733 78850 78127 77687 77645
970.9831 78070 78944 80161 81545 82908 84102 85042 85715 86145 86372 86430
976.2864 86350 86162 85894 85575 85220 84836 84421 83976 83504 83010 82497
981.5897 81962 81401 80812 80199 79571 78935 78294 77639 76965 76268 75557
986.8929 74851 74176 73560 73031 72621 72355 72255 72321 72524 72806 73082
992.1962 73267 73298 73149 72841 72428 71977 71547 71184 70924 70800 70844
997.4995 71081 71509 72094 72769 73451 74068 74574 74961 75246 75465 75651
1002.8028 75829 76008 76178 76310 76366 76312 76122 75789 75323 74743 74070
1008.1061 73324 72515 71652 70749 69832 68946 68147 67489 66998 66663 66438
1013.4094 66256 66052 65778 65410 64931 64328 63581 62680 61633 60484 59315
1018.7126 58232 57350 56768 56552 56726 57277 58157 59300 60623 62033 63433
1024.0160 64730 65844 66717 67317 67643 67711 67559 67234 66793 66289 65765
1029.3192 65244 64731 64215 63681 63121 62537 61932 61314 60681 60032 59363
1034.6226 58678 57986 57307 56664 56081 55580 55181 54899 54746 54738 54884
1039.9258 55185 55630 56184 56796 57406 57953 58388 58681 58819 58813 58690
1045.2291 58500 58305 58175 58174 58350 58723 59285 60016 60888 61878 62966
1050.5323 64128 65330 66526 67668 68710 69622 70386 71002 71479 71832 72068
1055.8357 72188 72177 72022 71716 71281 70759 70204 69668 69190 68794 68505
1061.1389 68347 68347 68520 68855 69313 69834 70356 70830 71223 71518 71701
1066.4423 71759 71679 71448 71067 70547 69915 69212 68491 67810 67229 66794
1071.7455 66534 66452 66530 66737 67029 67359 67666 67883 67941 67792 67431
1077.0488 66906 66317 65786 65426 65316 65480 65893 66483 67161 67831 68423
1082.3521 68894 69232 69442 69529 69494 69328 69027 68600 68075 67489 66878
1087.6554 66265 65661 65063 64469 63879 63297 62723 62156 61594 61045 60529
1092.9586 60081 59738 59530 59465 59532 59709 59968 60287 60644 61020 61396
1098.2620 61760 62105 62440 62779 63135 63520 63940 64397 64891 65420 65975
1103.5652 66543 67112 67669 68208 68723 69210 69661 70072 70442 70774 71073
1108.8685 71341 71573 71760 71894 71970 71990 71960 71888 71784 71662 71538
1114.1718 71425 71332 71259 71195 71127 71045 70951 70859 70792 70767 70795
1119.4751 70879 71016 71207 71457 71771 72149 72575 73030 73490 73943 74391
1124.7783 74840 75294 75746 76175 76564 76904 77206 77500 77822 78198 78636
1130.0817 79125 79640 80151 80638 81086 81491 81850 82160 82414 82604 82722
1135.3849 82764 82737 82657 82553 82455 82388 82364 82376 82404 82422 82409
1140.6882 82348 82233 82060 81836 81582 81330 81124 81002 80992 81107 81348
1145.9915 81716 82210 82826 83547 84343 85173 85997 86786 87522 88196 88806
1151.2948 89349 89828 90248 90615 90935 91210 91439 91623 91769 91887 91990
1156.5980 92086 92175 92246 92287 92288 92244 92154 92017 91828 91581 91277
1161.9014 90930 90569 90233 89959 89768 89666 89647 89704 89835 90044 90333
1167.2046 90692 91094 91501 91878 92200 92464 92682 92873 93048 93207 93338
1172.5079 93427 93466 93458 93419 93364 93298 93214 93094 92925 92701 92431
1177.8112 92129 91808 91476 91138 90802 90483 90209 90007 89900 89901 90012
1183.1145 90231 90545 90934 91370 91822 92266 92685 93074 93431 93756 94041
1188.4177 94278 94465 94603 94702 94769 94803 94800 94750 94649 94501 94311
1193.7211 94086 93828 93534 93198 92821 92411 91983 91557 91152 90774 90419
1199.0243 90070 89707 89314 88895 88470 88074 87745 87517 87410 87435 87595
1204.3276 87887 88303 88825 89425 90062 90691 91270 91775 92198 92547 92836
1209.6309 93074 93264 93401 93480 93499 93460 93368 93221 93016 92748 92412
1214.9342 92012 91551 91030 90445 89789 89056 88245 87366 86435 85463 84455
1220.2374 83405 82296 81107 79823 78436 76949 75369 73714 72008 70298 68652
1225.5408 67161 65932 65063 64635 64697 65258 66289 67723 69464 71395 73387
1230.8440 75317 77079 78596 79836 80806 81548 82119 82561 82886 83068 83052
1236.1473 82778 82205 81326 80173 78810 77326 75835 74470 73369 72654 72412
1241.4506 72676 73425 74596 76102 77850 79753 81728 83697 85589 87341 88902
1246.7539 90242 91350 92233 92913 93417 93770 93993 94107 94130 94077 93962
1252.0571 93791 93565 93284 92952 92578 92182 91789 91433 91147 90964 90902
1257.3605 90972 91164 91463 91842 92273 92727 93181 93620 94039 94442 94832
1262.6637 95209 95569 95901 96191 96422 96579 96649 96638 96576 96519 96525
1267.9670 96630 96824 97056 97257 97373 97383 97297 97147 96965 96771 96571
1273.2703 96365 96153 95939 95734 95549 95393 95277 95205 95175 95181 95215
1278.5736 95270 95347 95448 95573 95715 95857 95981 96071 96116 96112 96060
1283.8768 95954 95791 95565 95276 94926 94525 94089 93635 93185 92752 92345
1289.1802 91963 91598 91242 90889 90542 90205 89886 89591 89321 89081 88880
1294.4834 88729 88648 88656 88766 88977 89272 89612 89952 90242 90449 90559
1299.7867 90580 90539 90467 90391 90323 90262 90197 90111 89992 89833 89635
1305.0900 89410 89182 88985 88862 88853 88986 89261 89650 90100 90548 90942
1310.3933 91250 91465 91594 91649 91645 91592 91499 91376 91234 91085 90940
1315.6965 90811 90710 90654 90659 90741 90910 91165 91489 91856 92232 92584
1320.9999 92888 93129 93300 93407 93466 93500 93532 93576 93637 93713 93800
1326.3031 93895 93995 94100 94206 94311 94407 94489 94548 94572 94554 94491
1331.6064 94393 94278 94171 94087 94028 93980 93923 93839 93723 93578 93414
1336.9097 93233 93028 92791 92522 92242 91999 91841 91795 91847 91959 92089
1342.2130 92210 92304 92359 92365 92319 92226 92097 91942 91771 91590 91403
1347.5162 91211 91015 90812 90593 90345 90059 89730 89362 88963 88542 88105
1352.8196 87658 87210 86779 86388 86060 85807 85630 85523 85484 85514 85624
1358.1228 85822 86117 86513 87001 87559 88153 88749 89337 89928 90542 91174
1363.4261 91779 92302 92716 93029 93267 93455 93614 93764 93928 94135 94409
1368.7294 94755 95145 95535 95877 96144 96328 96439 96493 96513 96519 96531
1374.0327 96558 96595 96625 96633 96611 96558 96478 96378 96267 96157 96063
1379.3359 95999 95971 95983 96030 96102 96189 96279 96364 96437 96489 96508
1384.6393 96483 96408 96286 96127 95957 95813 95720 95670 95629 95561 95445
1389.9425 95272 95049 94791 94518 94245 93968 93674 93346 92987 92638 92375
1395.2458 92248 92241 92295 92363 92430 92508 92624 92799 93022 93250 93444
1400.5491 93590 93695 93765 93796 93781 93712 93592 93439 93289 93177 93116
1405.8524 93083 93040 92957 92827 92660 92479 92304 92146 92000 91851 91690
1411.1556 91514 91327 91137 90948 90762 90577 90394 90211 90026 89840 89655
1416.4590 89478 89308 89142 88965 88764 88541 88316 88114 87927 87733 87513
1421.7622 87252 86938 86562 86128 85657 85177 84695 84190 83620 82957 82200
1427.0656 81379 80544 79754 79070 78568 78341 78445 78837 79401 80032 80690
1432.3688 81379 82103 82833 83518 84128 84685 85274 86032 87052 88187 89089
1437.6721 89603 89831 89905 89898 89830 89704 89521 89294 89034 88755 88463
1442.9753 88163 87862 87573 87305 87065 86849 86648 86449 86248 86051 85878
1448.2787 85750 85665 85605 85560 85534 85542 85601 85708 85829 85912 85918
1453.5819 85831 85657 85410 85102 84742 84337 83918 83556 83331 83258 83295
1458.8853 83392 83523 83677 83847 84030 84214 84382 84512 84585 84588 84516
1464.1885 84367 84154 83902 83630 83329 82975 82545 82033 81461 80881 80350
1469.4918 79909 79566 79310 79146 79119 79336 79878 80625 81327 81868 82288
1474.7950 82676 83120 83680 84351 85045 85668 86188 86626 87011 87357 87661
1480.0984 87907 88084 88187 88215 88170 88056 87887 87693 87507 87365 87296
1485.4016 87324 87475 87760 88151 88565 88907 89127 89234 89280 89332 89431
1490.7050 89558 89658 89700 89679 89605 89492 89349 89175 88957 88672 88308
1496.0082 87897 87510 87189 86909 86613 86261 85854 85427 85004 84568 84075
1501.3115 83486 82797 82050 81303 80585 79878 79126 78258 77209 75992 74897
1506.6147 74505 74954 75855 77005 78378 79912 81489 83008 84448 85855 87290
1511.9181 88755 90162 91385 92353 93082 93634 94073 94436 94750 95039 95332
1517.2213 95627 95883 96066 96164 96181 96122 96001 95876 95874 96078 96378
1522.5247 96628 96790 96877 96917 96935 96958 97004 97072 97144 97201 97243
1527.8279 97280 97326 97379 97429 97463 97473 97457 97419 97361 97286 97201
1533.1312 97130 97108 97149 97231 97318 97388 97427 97430 97392 97308 97171
1538.4344 96978 96758 96597 96568 96617 96673 96721 96767 96811 96840 96839
1543.7378 96810 96775 96768 96814 96901 96991 97046 97047 96988 96863 96671
1549.0410 96427 96178 95988 95892 95861 95842 95791 95686 95515 95289 95059
1554.3444 94905 94855 94860 94859 94815 94704 94491 94125 93585 93124 93203
1559.6476 93631 94013 94269 94431 94526 94569 94564 94516 94432 94333 94254
1564.9509 94219 94226 94246 94247 94212 94132 94005 93827 93610 93403 93267
1570.2542 93208 93177 93126 93032 92887 92695 92473 92239 92003 91771 91562
1575.5575 91441 91505 91752 92034 92242 92361 92406 92388 92312 92178 91991
1580.8607 91754 91470 91138 90756 90329 89864 89378 88897 88455 88094 87851
1586.1641 87749 87791 87957 88214 88519 88834 89121 89346 89483 89511 89427
1591.4674 89252 89027 88813 88676 88680 88868 89248 89788 90422 91078 91696
1596.7706 92233 92665 92983 93188 93295 93325 93300 93240 93156 93052 92929
1602.0740 92787 92625 92449 92261 92061 91839 91585 91287 90945 90565 90161
1607.3772 89743 89309 88847 88338 87776 87170 86541 85906 85258 84571 83808
1612.6805 82957 82041 81115 80226 79388 78583 77796 77102 76719 76808 77249
1617.9838 77851 78559 79409 80433 81602 82819 83972 85010 85974 86983 88154
1623.2871 89462 90688 91622 92248 92656 92932 93125 93266 93376 93476 93568
1628.5903 93640 93674 93665 93609 93504 93348 93140 92892 92623 92349 92084
1633.8937 91842 91660 91618 91796 92132 92458 92693 92857 92980 93070 93122
1639.1969 93128 93093 93037 92993 93003 93092 93257 93459 93647 93782 93848
1644.5002 93849 93800 93729 93669 93659 93732 93884 94081 94275 94429 94522
1649.8035 94551 94527 94461 94365 94246 94110 94017 94106 94338 94539 94685
1655.1068 94798 94890 94964 95025 95079 95137 95203 95275 95341 95388 95405
1660.4100 95392 95355 95314 95295 95331 95429 95557 95673 95753 95793 95797
1665.7134 95768 95708 95619 95501 95352 95178 95002 94870 94806 94787 94770
1671.0166 94731 94668 94596 94525 94455 94376 94274 94140 93988 93863 93801
1676.3199 93781 93763 93725 93662 93577 93483 93404 93367 93384 93438 93494
1681.6232 93520 93493 93396 93225 93034 93027 93328 93686 93922 94051 94116
1686.9265 94150 94170 94193 94234 94299 94391 94497 94601 94687 94744 94767
1692.2297 94757 94721 94669 94606 94538 94475 94440 94477 94587 94702 94766
1697.5331 94773 94733 94647 94516 94377 94367 94604 94889 95052 95110 95109
1702.8363 95075 95024 94969 94924 94907 94936 95020 95147 95281 95383 95431
1708.1396 95420 95362 95274 95182 95106 95056 95026 94996 94949 94875 94771
1713.4429 94645 94517 94418 94366 94350 94337 94300 94241 94205 94278 94488
1718.7462 94746 94962 95113 95204 95247 95248 95218 95170 95124 95093 95085
1724.0494 95093 95105 95114 95117 95116 95111 95096 95061 94996 94900 94784
1729.3528 94671 94592 94559 94555 94550 94521 94456 94354 94230 94135 94132
1734.6560 94196 94258 94293 94301 94285 94243 94169 94066 93946 93853 93837
1739.9594 93914 94034 94134 94182 94177 94135 94083 94052 94055 94077 94087
1745.2626 94066 94006 93915 93813 93726 93673 93656 93657 93657 93651 93659
1750.5659 93709 93820 93970 94113 94209 94250 94248 94215 94165 94107 94053
1755.8691 94013 93998 94015 94055 94104 94142 94158 94147 94108 94049 93990
1761.1725 93961 93990 94068 94154 94215 94246 94255 94255 94254 94249 94231
1766.4757 94194 94141 94089 94068 94086 94124 94148 94129 94056 93934 93800
1771.7791 93731 93791 93938 94075 94149 94164 94145 94123 94124 94157 94210
1777.0823 94259 94285 94278 94242 94189 94136 94103 94104 94136 94179 94212
1782.3856 94221 94200 94153 94093 94041 94020 94043 94104 94182 94256 94308
1787.6888 94322 94293 94222 94121 94006 93895 93806 93760 93781 93876 94018
1792.9922 94148 94226 94245 94219 94171 94127 94107 94116 94141 94161 94163
1798.2954 94146 94121 94098 94084 94077 94069 94062 94068 94100 94166 94257
1803.5988 94351 94425 94466 94469 94441 94398 94356 94328 94315 94310 94300
1808.9020 94278 94245 94208 94176 94156 94146 94140 94136 94136 94144 94161
1814.2053 94183 94202 94212 94211 94204 94202 94209 94228 94251 94272 94287
1819.5085 94297 94305 94312 94313 94299 94263 94205 94132 94058 94001 93984
1824.8119 94024 94118 94234 94331 94383 94384 94337 94251 94148 94068 94053
1830.1151 94111 94202 94282 94334 94363 94382 94403 94429 94451 94453 94425
1835.4185 94370 94305 94258 94252 94290 94351 94400 94409 94368 94287 94188
1840.7217 94095 94021 93965 93915 93857 93781 93695 93633 93628 93682 93771
1846.0250 93871 93964 94037 94083 94104 94116 94133 94160 94185 94186 94150
1851.3282 94080 94002 93946 93931 93951 93979 93983 93950 93888 93822 93779
1856.6316 93773 93800 93845 93890 93924 93946 93962 93980 94006 94038 94069
1861.9348 94086 94078 94042 93987 93927 93874 93830 93785 93722 93630 93509
1867.2382 93377 93262 93196 93193 93246 93322 93391 93440 93473 93501 93538
1872.5414 93589 93652 93714 93758 93772 93755 93720 93688 93678 93696 93737
1877.8447 93786 93826 93845 93840 93818 93785 93751 93718 93691 93673 93668
1883.1479 93679 93708 93749 93797 93844 93882 93904 93900 93863 93793 93700
1888.4513 93613 93571 93606 93715 93855 93975 94039 94041 93998 93943 93908
1893.7545 93912 93948 93985 93988 93946 93878 93822 93809 93846 93914 93977
1899.0579 94006 93991 93946 93897 93869 93875 93914 93968 94013 94029 94005
1904.3611 93953 93895 93855 93833 93810 93752 93638 93476 93306 93175 93115
1909.6644 93127 93184 93248 93293 93307 93295 93269 93244 93238 93255 93286
1914.9677 93307 93300 93264 93227 93228 93300 93428 93552 93609 93585 93515
1920.2710 93439 93379 93323 93236 93094 92909 92746 92671 92710 92839 93006
1925.5742 93161 93278 93355 93409 93459 93516 93577 93633 93679 93717 93749
1930.8776 93777 93792 93781 93730 93646 93559 93515 93555 93686 93864 94008
1936.1808 94040 93928 93712 93478 93318 93279 93345 93457 93556 93615 93639
1941.4841 93647 93640 93599 93502 93362 93228 93162 93203 93346 93535 93680
1946.7874 93706 93598 93415 93254 93208 93325 93572 93852 94032 94005 93732
1952.0907 93261 92710 92220 91917 91873 92090 92494 92953 93317 93472 93386
1957.3939 93124 92809 92569 92472 92505 92604 92702 92778 92856 92968 93114
1962.6973 93254 93328 93295 93164 92984 92826 92752 92789 92919 93081 93205
