##TITLE= INCSODIOPAMMINOSALICILATO
##JCAMP-DX= 4.24
##DATA TYPE= INFRARED SPECTRUM
##ORIGIN= JASCO
##OWNER= 
##DATE= 22/04/13
##TIME= 16:58:49
##SPECTROMETER/DATA SYSTEM= 
##RESOLUTION= 
##DELTAX=   0.48211674
##XUNITS= 1/CM
##YUNITS= TRANSMITTANCE
##XFACTOR= 1.00000
##YFACTOR= 1E-005
##FIRSTX=   599.7532
##LASTX=  4000.1226
##NPOINTS=     7054
##FIRSTY=      0.47285
##MAXY=      0.98414
##MINY=      0.37760
##XYDATA= (X++(Y..Y))
599.7532 47285 47438 47718 48039 48326 48535 48667 48756 48852 49004 49236
605.0565 49528 49826 50069 50217 50267 50245 50187 50126 50077 50041 50010
610.3598 49962 49877 49741 49556 49343 49125 48910 48689 48438 48154 47863
615.6631 47621 47480 47460 47520 47584 47578 47479 47329 47197 47144 47194
620.9664 47338 47545 47788 48048 48309 48546 48731 48852 48933 49029 49198
626.2697 49461 49798 50172 50578 51055 51672 52476 53444 54482 55468 56311
631.5729 56990 57549 58056 58554 59043 59489 59861 60155 60390 60598 60802
636.8762 61008 61220 61446 61709 62030 62422 62885 63409 63994 64661 65449
642.1795 66397 67522 68800 70155 71482 72672 73650 74395 74939 75336 75630
647.4828 75827 75893 75786 75499 75089 74664 74329 74139 74067 74029 73931
652.7861 73730 73452 73179 72982 72873 72805 72704 72534 72319 72135 72054
658.0894 72090 72184 72222 72101 71783 71314 70799 70345 70015 69809 69679
663.3926 69565 69439 69321 69249 69258 69351 69513 69704 69830 69699 69183
668.6959 68633 68350 68199 68012 67709 67270 66729 66160 65656 65302 65146
673.9992 65188 65365 65555 65612 65441 65060 64611 64283 64199 64339 64549
679.3025 64642 64513 64196 63838 63615 63633 63875 64198 64388 64246 63702
684.6058 62884 62096 61660 61711 62064 62275 61892 60751 59138 57670 56970
689.9091 57321 58524 60002 61078 61255 60385 58676 56578 54588 53064 52102
695.2123 51547 51115 50551 49741 48707 47525 46254 44916 43539 42201 41010
700.5156 40050 39325 38767 38305 37938 37760 37902 38450 39394 40648 42113
705.8189 43738 45524 47485 49591 51746 53813 55672 57264 58597 59712 60640
711.1222 61385 61930 62276 62456 62538 62600 62700 62859 63055 63246 63387
716.4255 63447 63422 63326 63181 63002 62787 62526 62207 61838 61443 61051
721.7288 60667 60279 59871 59446 59041 58715 58517 58450 58466 58483 58429
727.0320 58277 58056 57827 57642 57512 57402 57256 57034 56737 56411 56121
732.3353 55924 55834 55829 55855 55853 55781 55626 55400 55134 54869 54651
737.6386 54522 54510 54618 54815 55045 55248 55395 55498 55609 55786 56062
742.9419 56428 56839 57240 57595 57898 58169 58423 58658 58842 58937 58923
748.2452 58810 58636 58445 58260 58074 57863 57608 57313 56996 56681 56378
753.5485 56084 55792 55505 55234 54991 54769 54550 54315 54063 53819 53621
758.8517 53494 53434 53409 53386 53353 53324 53325 53371 53439 53483 53457
764.1550 53344 53177 53017 52924 52929 53019 53155 53290 53391 53445 53456
769.4583 53439 53412 53396 53411 53471 53585 53750 53955 54182 54406 54600
774.7616 54750 54854 54934 55025 55160 55353 55592 55848 56088 56292 56457
780.0649 56592 56712 56833 56970 57131 57317 57510 57678 57785 57807 57744
785.3682 57624 57488 57381 57326 57326 57360 57398 57414 57393 57336 57250
790.6714 57145 57018 56855 56634 56336 55950 55483 54960 54419 53903 53444
795.9747 53051 52704 52360 51973 51511 50973 50385 49781 49186 48606 48030
801.2780 47451 46871 46308 45793 45358 45029 44819 44728 44745 44857 45055
806.5813 45340 45715 46182 46726 47316 47918 48507 49083 49666 50282 50948
811.8846 51660 52399 53141 53870 54577 55260 55913 56524 57082 57581 58028
817.1879 58439 58827 59195 59531 59810 60004 60094 60074 59964 59795 59609
822.4911 59433 59273 59111 58916 58670 58385 58105 57894 57806 57870 58082
827.7944 58431 58910 59536 60336 61325 62488 63776 65120 66457 67748 68979
833.0977 70151 71261 72294 73228 74046 74750 75359 75902 76397 76845 77229
838.4010 77521 77703 77769 77726 77586 77353 77022 76581 76019 75332 74525
843.7043 73610 72601 71511 70351 69136 67891 66642 65416 64234 63110 62058
849.0076 61094 60248 59547 59005 58613 58339 58143 57991 57876 57813 57832
854.3109 57951 58168 58457 58776 59090 59377 59642 59899 60163 60435 60707
859.6141 60965 61208 61452 61721 62041 62424 62869 63367 63908 64495 65134
864.9174 65832 66585 67374 68174 68956 69695 70374 70982 71511 71962 72336
870.2207 72637 72871 73040 73144 73189 73188 73157 73114 73066 73008 72927
875.5240 72810 72650 72453 72234 72011 71803 71621 71469 71343 71231 71115
880.8273 70980 70820 70637 70446 70273 70147 70091 70116 70216 70368 70541
886.1306 70719 70907 71131 71426 71812 72286 72812 73344 73844 74297 74719
891.4338 75143 75595 76082 76588 77087 77555 77987 78390 78777 79155 79522
896.7371 79873 80208 80536 80872 81226 81594 81964 82315 82633 82913 83158
902.0404 83379 83584 83778 83961 84130 84286 84435 84583 84738 84904 85083
907.3437 85278 85489 85719 85960 86198 86414 86597 86753 86907 87094 87337
912.6470 87636 87961 88269 88519 88695 88806 88879 88941 89006 89066 89103
917.9503 89104 89070 89020 88981 88973 88998 89049 89113 89186 89277 89398
923.2535 89562 89767 89995 90224 90424 90574 90660 90683 90661 90622 90595
928.5568 90599 90636 90689 90740 90783 90830 90908 91039 91226 91445 91648
933.8601 91788 91837 91794 91689 91560 91440 91343 91269 91208 91149 91090
939.1634 91037 90996 90973 90965 90964 90960 90940 90896 90825 90733 90629
944.4667 90524 90425 90337 90261 90198 90149 90110 90075 90035 89981 89909
949.7700 89826 89743 89670 89606 89539 89448 89312 89120 88876 88601 88321
955.0732 88061 87830 87626 87433 87236 87024 86794 86544 86269 85958 85593
960.3765 85160 84654 84091 83511 82971 82541 82277 82207 82314 82540 82802
965.6798 83021 83139 83129 82987 82716 82310 81753 81017 80066 78871 77424
970.9831 75758 73979 72265 70864 70036 69990 70823 72478 74764 77400 80090
976.2864 82593 84760 86536 87937 89019 89846 90480 90971 91354 91652 91881
981.5897 92056 92192 92304 92404 92490 92558 92599 92619 92638 92682 92773
986.8929 92913 93086 93256 93393 93474 93498 93474 93416 93337 93246 93153
992.1962 93065 92993 92942 92912 92896 92889 92886 92889 92903 92929 92961
997.4995 92988 92992 92960 92887 92781 92662 92554 92482 92456 92472 92512
1002.8028 92546 92546 92498 92406 92297 92207 92171 92212 92326 92490 92665
1008.1061 92816 92922 92987 93030 93076 93140 93222 93311 93389 93446 93481
1013.4094 93501 93517 93541 93578 93633 93704 93792 93895 94010 94132 94249
1018.7126 94346 94403 94407 94354 94249 94108 93941 93752 93537 93290 93013
1024.0160 92719 92433 92178 91974 91828 91733 91676 91640 91614 91592 91576
1029.3192 91569 91571 91575 91571 91552 91519 91477 91434 91395 91358 91321
1034.6226 91290 91273 91280 91312 91359 91402 91428 91435 91428 91412 91381
1039.9258 91324 91228 91093 90934 90773 90629 90507 90399 90297 90195 90100
1045.2291 90019 89956 89906 89861 89811 89754 89692 89623 89542 89436 89293
1050.5323 89107 88883 88636 88389 88162 87975 87836 87742 87677 87617 87543
1055.8357 87443 87325 87207 87113 87060 87053 87083 87131 87177 87203 87200
1061.1389 87164 87102 87020 86928 86829 86723 86607 86485 86366 86265 86197
1066.4423 86173 86189 86232 86286 86335 86374 86403 86427 86450 86468 86478
1071.7455 86476 86464 86447 86428 86404 86366 86302 86207 86089 85970 85872
1077.0488 85814 85800 85823 85860 85886 85870 85789 85628 85396 85121 84847
1082.3521 84619 84463 84379 84342 84316 84271 84194 84090 83970 83842 83711
1087.6554 83574 83426 83265 83091 82905 82704 82487 82252 81996 81712 81391
1092.9586 81024 80604 80129 79605 79040 78440 77808 77145 76457 75759 75080
1098.2620 74461 73952 73596 73428 73464 73704 74128 74700 75372 76090 76798
1103.5652 77448 78007 78464 78824 79102 79314 79469 79572 79622 79624 79590
1108.8685 79536 79477 79424 79377 79335 79292 79248 79208 79176 79149 79118
1114.1718 79071 78994 78886 78757 78624 78509 78423 78369 78334 78302 78256
1119.4751 78186 78091 77973 77836 77683 77519 77349 77176 77004 76837 76673
1124.7783 76516 76366 76228 76099 75978 75861 75750 75651 75577 75539 75540
1130.0817 75577 75635 75703 75772 75839 75906 75975 76043 76107 76163 76212
1135.3849 76255 76292 76318 76322 76293 76222 76113 75983 75856 75754 75688
1140.6882 75652 75630 75598 75539 75446 75318 75161 74977 74773 74551 74314
1145.9915 74062 73792 73500 73183 72846 72500 72159 71828 71502 71165 70800
1151.2948 70401 69978 69555 69153 68783 68437 68092 67725 67320 66874 66395
1156.5980 65894 65376 64840 64281 63693 63076 62431 61761 61069 60358 59633
1161.9014 58910 58214 57593 57108 56834 56843 57190 57887 58901 60149 61520
1167.2046 62896 64181 65314 66271 67055 67680 68160 68498 68694 68750 68676
1172.5079 68490 68217 67885 67514 67115 66691 66234 65739 65200 64618 63998
1177.8112 63346 62668 61963 61231 60468 59676 58855 58008 57137 56241 55317
1183.1145 54364 53388 52408 51454 50570 49799 49188 48779 48609 48712 49116
1188.4177 49842 50892 52246 53860 55669 57597 59569 61517 63384 65124 66701
1193.7211 68093 69294 70311 71169 71901 72539 73106 73610 74046 74401 74671
1199.0243 74865 75006 75121 75225 75320 75395 75432 75422 75366 75271 75149
1204.3276 75004 74836 74645 74432 74202 73962 73719 73476 73232 72984 72727
1209.6309 72457 72174 71878 71573 71262 70947 70630 70311 69989 69662 69327
1214.9342 68981 68620 68242 67841 67412 66949 66445 65905 65338 64764 64199
1220.2374 63656 63133 62623 62112 61592 61062 60526 59993 59471 58970 58506
1225.5408 58096 57766 57546 57468 57562 57851 58353 59071 59992 61088 62317
1230.8440 63629 64970 66293 67561 68749 69839 70820 71689 72449 73109 73687
1236.1473 74201 74671 75109 75521 75906 76259 76572 76838 77051 77209 77309
1241.4506 77349 77323 77223 77040 76775 76436 76042 75615 75174 74736 74309
1246.7539 73901 73516 73161 72841 72558 72313 72101 71914 71741 71574 71407
1252.0571 71239 71074 70918 70779 70659 70554 70459 70363 70254 70123 69967
1257.3605 69786 69588 69383 69176 68974 68776 68580 68384 68183 67973 67754
1262.6637 67525 67291 67058 66828 66605 66393 66194 66013 65850 65704 65565
1267.9670 65422 65266 65097 64919 64742 64572 64409 64251 64089 63921 63745
1273.2703 63566 63388 63217 63054 62896 62737 62570 62391 62199 61994 61782
1278.5736 61563 61340 61111 60876 60639 60403 60173 59950 59732 59514 59294
1283.8768 59069 58843 58617 58398 58185 57977 57769 57557 57337 57113 56888
1289.1802 56669 56459 56257 56060 55863 55666 55469 55275 55085 54897 54710
1294.4834 54524 54339 54162 54000 53858 53743 53657 53603 53582 53594 53638
1299.7867 53714 53822 53969 54160 54405 54707 55072 55500 55992 56548 57163
1305.0900 57828 58529 59251 59982 60717 61456 62195 62929 63646 64329 64964
1310.3933 65542 66059 66520 66931 67300 67635 67942 68230 68511 68802 69121
1315.6965 69482 69895 70358 70868 71421 72017 72649 73303 73955 74578 75151
1320.9999 75666 76122 76518 76848 77106 77283 77376 77388 77321 77180 76970
1326.3031 76696 76365 75988 75573 75127 74653 74152 73628 73088 72538 71986
1331.6064 71433 70878 70317 69753 69191 68637 68088 67538 66976 66398 65809
1336.9097 65222 64648 64085 63521 62943 62345 61741 61150 60587 60047 59514
1342.2130 58973 58416 57846 57272 56702 56139 55577 55009 54431 53847 53266
1347.5162 52697 52145 51612 51096 50597 50109 49628 49147 48664 48185 47719
1352.8196 47277 46864 46479 46117 45775 45452 45150 44876 44633 44424 44249
1358.1228 44109 44006 43946 43934 43974 44066 44213 44425 44718 45104 45571
1363.4261 46081 46597 47108 47627 48170 48745 49347 49968 50601 51247 51902
1368.7294 52547 53152 53694 54167 54585 54966 55326 55671 56009 56345 56684
1374.0327 57018 57325 57581 57783 57941 58073 58193 58308 58423 58541 58665
1379.3359 58796 58936 59085 59240 59403 59573 59753 59946 60157 60385 60626
1384.6393 60875 61133 61415 61750 62177 62710 63307 63889 64408 64871 65319
1389.9425 65791 66304 66847 67388 67901 68386 68871 69401 70022 70753 71548
1395.2458 72310 72967 73517 74004 74485 75023 75669 76431 77237 77986 78626
1400.5491 79182 79708 80245 80804 81370 81921 82444 82943 83425 83886 84309
1405.8524 84681 85005 85302 85588 85870 86143 86395 86616 86802 86957 87091
1411.1556 87214 87339 87478 87634 87801 87963 88104 88208 88273 88302 88309
1416.4590 88307 88303 88285 88221 88058 87768 87408 87099 86902 86792 86718
1421.7622 86637 86516 86328 86065 85757 85456 85204 85002 84826 84646 84445
1427.0656 84222 83982 83724 83422 83026 82493 81829 81108 80404 79734 79055
1432.3688 78307 77472 76592 75751 75001 74321 73612 72703 71459 70009 68723
1437.6721 67776 67054 66394 65703 64957 64178 63410 62692 62043 61467 60973
1442.9753 60579 60308 60178 60193 60337 60589 60939 61407 62044 62907 63986
1448.2787 65172 66330 67409 68455 69543 70735 72045 73425 74793 76077 77254
1453.5819 78331 79326 80259 81154 82046 82982 83981 84976 85837 86507 87032
1458.8853 87464 87829 88132 88375 88563 88705 88812 88893 88953 88990 88989
1464.1885 88929 88805 88653 88527 88449 88409 88386 88360 88318 88255 88169
1469.4918 88063 87938 87789 87596 87307 86842 86185 85482 84916 84516 84207
1474.7950 83898 83512 83005 82395 81765 81189 80680 80208 79741 79263 78773
1480.0984 78276 77773 77267 76770 76293 75844 75412 74980 74536 74080 73618
1485.4016 73149 72655 72114 71528 70939 70404 69942 69524 69094 68626 68160
1490.7050 67773 67491 67276 67088 66907 66737 66591 66479 66408 66375 66369
1496.0082 66367 66347 66306 66260 66225 66209 66205 66198 66175 66135 66087
1501.3115 66037 65995 65969 65959 65964 65979 66001 66040 66140 66409 66989
1506.6147 67811 68545 69119 69683 70325 71031 71749 72447 73136 73856 74648
1511.9181 75508 76382 77193 77904 78521 79077 79599 80111 80640 81214 81819
1517.2213 82366 82775 83042 83208 83318 83406 83507 83647 83817 83949 83998
1522.5247 83993 83967 83927 83859 83748 83585 83388 83188 83008 82844 82673
1527.8279 82478 82259 82026 81792 81557 81314 81061 80795 80518 80223 79899
1533.1312 79541 79175 78834 78522 78215 77891 77546 77191 76840 76500 76154
1538.4344 75759 75258 74687 74217 73910 73653 73350 72987 72609 72270 71984
1543.7378 71724 71448 71123 70750 70360 69983 69626 69282 68945 68615 68298
1549.0410 68001 67726 67469 67219 66972 66728 66489 66258 66041 65850 65701
1554.3444 65595 65504 65400 65275 65136 64995 64880 64865 65135 65866 66644
1559.6476 66969 67014 67000 66998 67026 67087 67185 67328 67527 67794 68125
1564.9509 68492 68844 69145 69382 69564 69715 69869 70080 70404 70836 71252
1570.2542 71525 71655 71709 71741 71780 71829 71883 71928 71953 71950 71911
1575.5575 71822 71685 71530 71387 71253 71104 70923 70701 70436 70136 69814
1580.8607 69479 69131 68768 68387 67988 67575 67150 66711 66255 65776 65272
1586.1641 64747 64208 63665 63126 62598 62083 61588 61125 60714 60372 60113
1591.4674 59942 59855 59845 59912 60062 60300 60629 61040 61521 62056 62637
1596.7706 63257 63909 64579 65251 65915 66565 67204 67830 68435 69009 69541
1602.0740 70024 70458 70843 71181 71475 71733 71965 72182 72388 72580 72753
1607.3772 72899 73014 73100 73162 73203 73225 73228 73218 73199 73176 73150
1612.6805 73120 73082 73034 72976 72909 72826 72706 72513 72236 71930 71657
1617.9838 71413 71158 70856 70491 70072 69630 69199 68792 68389 67951 67437
1623.2871 66863 66312 65854 65486 65169 64872 64576 64277 63983 63714 63486
1628.5903 63302 63147 63009 62883 62772 62681 62615 62570 62537 62511 62500
1633.8937 62526 62642 62911 63328 63748 64050 64268 64481 64732 65028 65358
1639.1969 65713 66088 66490 66929 67410 67932 68477 69018 69526 69984 70398
1644.5002 70799 71245 71814 72571 73498 74468 75343 76085 76710 77236 77672
1649.8035 78030 78332 78598 78855 79149 79609 80517 81843 82763 83149 83362
1655.1068 83558 83775 84016 84277 84553 84837 85126 85418 85706 85978 86218
1660.4100 86420 86592 86760 86963 87228 87529 87807 88023 88189 88331 88473
1665.7134 88620 88765 88899 89022 89145 89289 89468 89665 89842 89979 90091
1671.0166 90200 90312 90413 90490 90541 90578 90623 90708 90862 91066 91253
1676.3199 91386 91478 91555 91634 91722 91823 91934 92048 92158 92258 92351
1681.6232 92441 92529 92613 92690 92761 92859 93016 93197 93361 93503 93626
1686.9265 93733 93828 93917 94010 94117 94242 94378 94516 94646 94763 94868
1692.2297 94962 95047 95120 95180 95228 95274 95341 95467 95648 95823 95955
1697.5331 96052 96131 96207 96292 96397 96521 96617 96658 96677 96695 96716
1702.8363 96743 96777 96824 96891 96977 97076 97175 97262 97329 97373 97400
1708.1396 97417 97429 97443 97464 97497 97540 97589 97640 97688 97730 97765
1713.4429 97789 97798 97791 97773 97754 97736 97716 97695 97690 97727 97815
1718.7462 97920 98008 98074 98122 98157 98184 98203 98212 98211 98204 98199
1724.0494 98205 98222 98249 98279 98306 98328 98347 98366 98384 98401 98412
1729.3528 98414 98409 98401 98399 98405 98413 98412 98384 98302 98163 98040
1734.6560 98008 98045 98101 98150 98186 98206 98209 98191 98144 98067 97975
1739.9594 97901 97866 97860 97863 97855 97830 97791 97752 97731 97727 97730
1745.2626 97728 97715 97690 97657 97620 97579 97532 97479 97424 97370 97326
1750.5659 97297 97289 97300 97316 97325 97321 97308 97287 97266 97246 97230
1755.8691 97216 97202 97190 97186 97194 97214 97241 97272 97301 97326 97341
1761.1725 97341 97326 97302 97278 97261 97251 97245 97243 97244 97250 97261
1766.4757 97275 97287 97294 97297 97302 97316 97342 97373 97398 97406 97387
1771.7791 97348 97322 97338 97389 97451 97505 97546 97574 97593 97608 97624
1777.0823 97642 97660 97677 97693 97706 97713 97713 97702 97686 97672 97667
1782.3856 97672 97683 97692 97691 97676 97649 97623 97607 97607 97621 97642
1787.6888 97662 97674 97673 97659 97637 97618 97611 97622 97645 97661 97652
1792.9922 97616 97564 97510 97461 97419 97390 97380 97392 97419 97448 97460
1798.2954 97442 97388 97310 97238 97201 97215 97271 97343 97408 97448 97463
1803.5988 97468 97475 97488 97503 97504 97481 97433 97371 97314 97277 97263
1808.9020 97267 97279 97293 97305 97312 97311 97296 97264 97224 97186 97167
1814.2053 97175 97207 97250 97284 97296 97283 97256 97233 97229 97247 97276
1819.5085 97296 97292 97257 97204 97156 97138 97159 97205 97248 97256 97214
1824.8119 97134 97062 97042 97080 97152 97230 97300 97355 97390 97395 97352
1830.1151 97261 97145 97035 96953 96907 96899 96923 96967 97018 97061 97086
1835.4185 97087 97057 96996 96916 96839 96793 96798 96855 96948 97049 97126
1840.7217 97155 97127 97057 96969 96889 96839 96824 96826 96815 96777 96719
1846.0250 96657 96599 96544 96495 96458 96444 96463 96516 96594 96680 96754
1851.3282 96804 96827 96834 96836 96844 96859 96875 96881 96865 96822 96754
1856.6316 96674 96603 96561 96562 96603 96667 96733 96778 96792 96770 96718
1861.9348 96644 96561 96481 96419 96384 96377 96390 96410 96421 96415 96397
1867.2382 96384 96396 96444 96515 96581 96612 96606 96581 96560 96559 96579
1872.5414 96609 96630 96627 96592 96530 96454 96381 96326 96294 96284 96287
1877.8447 96293 96295 96295 96299 96309 96323 96332 96329 96318 96309 96316
1883.1479 96346 96387 96422 96431 96412 96375 96338 96315 96305 96300 96281
1888.4513 96232 96147 96037 95932 95858 95820 95806 95799 95789 95782 95791
1893.7545 95832 95904 95988 96057 96093 96101 96094 96081 96058 96012 95938
1899.0579 95850 95777 95749 95776 95847 95935 96011 96052 96045 95985 95877
1904.3611 95737 95595 95478 95405 95384 95407 95467 95557 95669 95785 95876
1909.6644 95908 95861 95752 95626 95539 95524 95578 95662 95716 95692 95579
1914.9677 95410 95234 95093 95004 94965 94967 95004 95074 95170 95272 95350
1920.2710 95377 95338 95233 95084 94936 94841 94833 94914 95057 95222 95373
1925.5742 95481 95528 95511 95435 95316 95172 95029 94921 94880 94922 95036
1930.8776 95185 95320 95404 95422 95375 95275 95138 94990 94870 94823 94872
1936.1808 95008 95183 95348 95481 95595 95714 95836 95914 95876 95670 95296
1941.4841 94826 94391 94126 94091 94243 94492 94772 95049 95307 95524 95671
1946.7874 95729 95709 95649 95596 95587 95628 95693 95727 95678 95525 95296
1952.0907 95062 94904 94867 94933 95029 95069 95012 94891 94796 94815 94984
1957.3939 95266 95582 95854 96036 96120 96116 96030 95873 95674 95487 95365
1962.6973 95314 95280 95175 94941 94604 94275 94096 94157 94427 94760 94983
