##TITLE= STDACIDOBENZOICO
##JCAMP-DX= 4.24
##DATA TYPE= INFRARED SPECTRUM
##ORIGIN= JASCO
##OWNER= 
##DATE= 22/04/14
##TIME= 11:27:21
##SPECTROMETER/DATA SYSTEM= 
##RESOLUTION= 
##DELTAX=   0.48211674
##XUNITS= 1/CM
##YUNITS= TRANSMITTANCE
##XFACTOR= 1.00000
##YFACTOR= 1E-005
##FIRSTX=   599.7532
##LASTX=  4000.1226
##NPOINTS=     7054
##FIRSTY=      0.68641
##MAXY=      0.93328
##MINY=      0.15615
##XYDATA= (X++(Y..Y))
599.7532 68641 69077 69514 69780 69815 69667 69432 69172 68895 68577 68214
605.0565 67855 67579 67446 67450 67520 67553 67467 67238 66897 66515 66167
610.3598 65913 65788 65793 65905 66074 66228 66281 66146 65763 65128 64305
615.6631 63436 62710 62318 62370 62834 63536 64249 64793 65084 65126 64972
620.9664 64689 64349 64016 63743 63558 63457 63400 63326 63184 62961 62699
626.2697 62472 62336 62299 62316 62322 62274 62172 62047 61912 61738 61460
631.5729 61027 60467 59897 59477 59323 59432 59670 59838 59778 59463 59002
636.8762 58565 58281 58172 58153 58096 57904 57572 57180 56841 56636 56576
642.1795 56604 56633 56581 56396 56061 55589 55012 54380 53749 53165 52641
647.4828 52159 51676 51163 50634 50137 49723 49402 49131 48833 48453 47991
652.7861 47497 47027 46581 46083 45430 44579 43609 42704 42044 41697 41578
658.0894 41498 41263 40760 39967 38919 37653 36210 34662 33114 31660 30324
663.3926 29052 27786 26556 25492 24745 24404 24499 25097 26524 29633 34916
668.6959 40248 43902 46681 49420 52357 55389 58228 60506 61891 62193 61403
673.9992 59688 57395 55011 53044 51841 51436 51516 51548 50994 49531 47155
679.3025 44133 40846 37640 34760 32385 30688 29834 29905 30819 32343 34227
684.6058 36366 38846 41811 45233 48762 51766 53577 53818 52636 50665 48694
689.9091 47239 46353 45741 45026 43966 42529 40833 39046 37291 35630 34091
695.2123 32687 31411 30210 28990 27666 26235 24813 23571 22610 21858 21084
700.5156 20043 18676 17212 16073 15615 15871 16519 17134 17565 18112 19335
705.8189 21647 24988 28840 32549 35743 38523 41289 44361 47709 50990 53849
711.1222 56201 58299 60544 63208 66273 69480 72535 75289 77769 80074 82244
716.4255 84223 85917 87271 88307 89089 89663 90039 90220 90257 90264 90362
721.7288 90617 91009 91449 91815 91997 91936 91649 91226 90801 90506 90429
727.0320 90571 90852 91143 91322 91331 91190 90969 90747 90564 90420 90287
732.3353 90146 90003 89883 89808 89772 89745 89688 89580 89433 89277 89141
737.6386 89030 88932 88830 88722 88622 88546 88502 88482 88472 88461 88448
742.9419 88437 88431 88428 88424 88422 88434 88472 88536 88611 88668 88678
748.2452 88620 88492 88309 88096 87879 87686 87533 87424 87343 87251 87100
753.5485 86850 86495 86070 85646 85302 85087 85007 85027 85089 85144 85159
758.8517 85122 85032 84896 84727 84554 84414 84336 84322 84333 84303 84174
764.1550 83932 83611 83281 83003 82797 82635 82460 82229 81939 81628 81348
769.4583 81134 80977 80828 80625 80322 79914 79441 78967 78555 78245 78045
774.7616 77936 77882 77839 77767 77633 77415 77113 76747 76355 75982 75659
780.0649 75397 75186 75000 74820 74638 74465 74312 74183 74058 73900 73669
785.3682 73345 72938 72493 72064 71695 71397 71146 70903 70637 70347 70062
790.6714 69817 69621 69441 69214 68879 68413 67848 67249 66682 66173 65701
795.9747 65210 64648 63987 63245 62464 61697 60977 60307 59661 59004 58308
801.2780 57576 56842 56167 55617 55238 55050 55037 55162 55379 55649 55949
806.5813 56268 56598 56913 57160 57267 57190 56962 56735 56761 57315 58575
811.8846 60534 62970 65517 67794 69541 70682 71306 71578 71655 71632 71543
817.1879 71394 71207 71035 70960 71062 71382 71904 72558 73243 73862 74345
822.4911 74670 74868 74996 75109 75230 75338 75390 75353 75231 75062 74899
827.7944 74781 74714 74680 74656 74625 74588 74554 74534 74534 74556 74600
833.0977 74656 74703 74710 74654 74528 74352 74167 74010 73906 73854 73836
838.4010 73827 73799 73724 73580 73359 73068 72743 72433 72186 72030 71963
843.7043 71954 71966 71972 71966 71969 72011 72111 72263 72430 72559 72609
849.0076 72570 72468 72348 72249 72188 72157 72136 72106 72052 71958 71810
854.3109 71598 71335 71059 70824 70685 70673 70786 70994 71254 71522 71762
859.6141 71949 72066 72105 72069 71974 71841 71691 71543 71410 71294 71195
864.9174 71107 71022 70936 70844 70749 70649 70540 70419 70285 70147 70016
870.2207 69904 69808 69714 69602 69459 69294 69130 68994 68896 68823 68743
875.5240 68627 68460 68252 68029 67820 67646 67511 67400 67292 67163 67002
880.8273 66811 66609 66424 66272 66154 66055 65947 65807 65622 65397 65151
886.1306 64905 64682 64492 64333 64188 64035 63859 63658 63443 63225 63008
891.4338 62784 62544 62283 62014 61754 61518 61306 61107 60905 60691 60459
896.7371 60209 59936 59636 59312 58978 58659 58377 58140 57937 57740 57521
902.0404 57262 56968 56656 56352 56071 55814 55569 55314 55032 54713 54361
907.3437 53988 53611 53245 52902 52588 52300 52029 51763 51487 51190 50864
912.6470 50510 50130 49731 49323 48913 48506 48100 47692 47280 46867 46468
917.9503 46109 45818 45619 45523 45524 45605 45741 45909 46089 46265 46422
923.2535 46550 46647 46716 46768 46817 46869 46925 46974 47008 47020 47012
928.5568 46991 46961 46928 46896 46871 46865 46888 46948 47049 47193 47380
933.8601 47613 47893 48222 48599 49028 49515 50076 50721 51446 52220 52988
939.1634 53680 54235 54623 54854 54982 55085 55236 55483 55833 56260 56721
944.4667 57183 57635 58087 58563 59076 59626 60202 60784 61364 61940 62525
949.7700 63128 63753 64398 65052 65702 66339 66959 67564 68156 68741 69322
955.0732 69901 70475 71036 71570 72071 72536 72980 73420 73874 74343 74814
960.3765 75258 75647 75967 76226 76449 76661 76878 77092 77281 77420 77504
965.6798 77554 77609 77708 77869 78075 78287 78462 78578 78638 78670 78706
970.9831 78762 78840 78922 78984 79003 78964 78866 78728 78589 78495 78490
976.2864 78590 78784 79030 79274 79474 79607 79679 79712 79730 79750 79773
981.5897 79789 79785 79755 79707 79650 79592 79531 79451 79331 79163 78956
986.8929 78740 78553 78427 78377 78394 78449 78505 78527 78489 78377 78187
992.1962 77917 77574 77166 76703 76200 75681 75184 74765 74477 74333 74260
997.4995 74104 73680 72892 71827 70782 70166 70311 71308 72944 74791 76401
1002.8028 77484 77988 78053 77894 77683 77501 77357 77232 77120 77030 76976
1008.1061 76961 76977 77008 77039 77053 77034 76968 76849 76685 76493 76291
1013.4094 76088 75884 75668 75430 75167 74884 74586 74281 73974 73673 73387
1018.7126 73124 72884 72652 72391 72053 71589 70961 70148 69144 67948 66549
1024.0160 64926 63068 61014 58913 57050 55820 55631 56761 59229 62738 66753
1029.3192 70661 73967 76424 78042 79005 79538 79821 79947 79952 79851 79669
1034.6226 79445 79221 79025 78864 78725 78587 78434 78261 78077 77899 77744
1039.9258 77623 77532 77454 77367 77253 77104 76927 76741 76570 76433 76339
1045.2291 76282 76248 76220 76184 76135 76074 76003 75926 75843 75754 75661
1050.5323 75568 75476 75386 75296 75206 75117 75032 74951 74868 74777 74670
1055.8357 74543 74397 74229 74037 73817 73570 73308 73047 72797 72547 72269
1061.1389 71927 71502 71002 70460 69913 69379 68846 68282 67655 66950 66176
1066.4423 65357 64522 63698 62914 62196 61565 61025 60561 60145 59749 59374
1071.7455 59054 58863 58905 59291 60116 61428 63203 65336 67660 69984 72141
1077.0488 74016 75556 76759 77647 78263 78656 78886 79018 79101 79166 79212
1082.3521 79226 79195 79124 79034 78945 78866 78780 78664 78505 78314 78123
1087.6554 77961 77840 77741 77633 77493 77323 77144 76979 76834 76689 76518
1092.9586 76301 76040 75751 75451 75142 74818 74467 74085 73676 73244 72783
1098.2620 72287 71757 71217 70717 70326 70111 70119 70360 70812 71424 72126
1103.5652 72843 73505 74061 74486 74784 74979 75098 75165 75187 75161 75083
1108.8685 74955 74792 74612 74430 74251 74065 73856 73610 73320 72992 72641
1114.1718 72283 71931 71591 71258 70925 70583 70225 69846 69446 69029 68600
1119.4751 68160 67708 67237 66735 66193 65606 64973 64293 63566 62793 61977
1124.7783 61133 60287 59481 58769 58213 57875 57810 58060 58644 59555 60754
1130.0817 62179 63747 65366 66946 68412 69708 70807 71704 72416 72976 73417
1135.3849 73774 74068 74307 74491 74615 74684 74706 74698 74673 74639 74596
1140.6882 74541 74472 74388 74288 74170 74032 73881 73727 73582 73452 73332
1145.9915 73217 73102 72992 72902 72840 72809 72796 72788 72770 72737 72689
1151.2948 72626 72549 72459 72362 72264 72168 72070 71960 71830 71679 71519
1156.5980 71367 71235 71119 71004 70869 70705 70517 70322 70136 69968 69811
1161.9014 69650 69472 69266 69029 68761 68460 68123 67749 67342 66913 66479
1167.2046 66066 65703 65416 65219 65107 65045 64979 64854 64629 64292 63855
1172.5079 63343 62774 62154 61477 60737 59937 59092 58230 57380 56577 55859
1177.8112 55269 54850 54638 54647 54861 55233 55694 56170 56595 56924 57133
1183.1145 57211 57159 56994 56747 56470 56233 56117 56202 56558 57231 58233
1188.4177 59543 61109 62848 64663 66450 68119 69600 70857 71885 72699 73327
1193.7211 73796 74131 74352 74481 74540 74549 74522 74466 74381 74266 74125
1199.0243 73967 73803 73637 73466 73280 73072 72841 72595 72351 72120 71907
1204.3276 71710 71523 71337 71148 70951 70741 70515 70271 70015 69757 69512
1209.6309 69293 69102 68938 68791 68655 68529 68421 68340 68294 68278 68284
1214.9342 68300 68317 68337 68361 68389 68413 68416 68384 68311 68202 68075
1220.2374 67947 67829 67725 67634 67548 67460 67362 67246 67112 66965 66815
1225.5408 66673 66544 66424 66300 66162 66000 65814 65612 65402 65194 64994
1230.8440 64799 64606 64406 64196 63977 63754 63535 63324 63120 62912 62691
1236.1473 62450 62188 61911 61626 61342 61067 60803 60553 60313 60081 59850
1241.4506 59613 59366 59108 58842 58573 58308 58049 57796 57549 57305 57063
1246.7539 56821 56578 56333 56089 55849 55614 55381 55140 54882 54603 54307
1252.0571 54007 53721 53460 53223 52998 52768 52522 52259 51986 51713 51447
1257.3605 51187 50928 50661 50381 50088 49782 49461 49125 48772 48400 48010
1262.6637 47603 47181 46746 46299 45843 45383 44923 44464 44003 43529 43034
1267.9670 42517 41982 41444 40919 40419 39956 39533 39155 38820 38525 38267
1273.2703 38044 37857 37710 37597 37513 37451 37405 37375 37363 37359 37346
1278.5736 37302 37207 37055 36853 36614 36351 36070 35772 35460 35139 34820
1283.8768 34514 34225 33953 33699 33466 33265 33108 33004 32956 32960 33011
1289.1802 33112 33274 33514 33845 34271 34787 35384 36057 36808 37638 38551
1294.4834 39539 40592 41696 42841 44014 45204 46393 47564 48702 49801 50861
1299.7867 51891 52895 53873 54820 55726 56585 57400 58181 58948 59723 60527
1305.0900 61377 62286 63255 64280 65343 66411 67441 68376 69158 69740 70088
1310.3933 70192 70060 69708 69157 68431 67555 66562 65485 64352 63180 61975
1315.6965 60735 59457 58131 56741 55263 53678 51987 50236 48503 46886 45461
1320.9999 44272 43338 42665 42258 42123 42257 42649 43274 44105 45113 46274
1326.3031 47571 48993 50533 52184 53944 55811 57784 59858 62016 64223 66437
1331.6064 68618 70730 72742 74627 76357 77915 79302 80532 81628 82606 83473
1336.9097 84224 84855 85373 85799 86160 86488 86806 87118 87415 87683 87912
1342.2130 88099 88241 88342 88407 88446 88469 88481 88485 88476 88447 88391
1347.5162 88304 88189 88056 87918 87791 87680 87586 87501 87423 87355 87307
1352.8196 87290 87312 87374 87466 87573 87681 87780 87863 87930 87976 87994
1358.1228 87979 87928 87842 87726 87582 87409 87200 86948 86659 86364 86116
1363.4261 85954 85872 85833 85791 85714 85589 85415 85195 84938 84656 84367
1368.7294 84093 83852 83644 83452 83255 83038 82798 82537 82252 81939 81593
1374.0327 81231 80888 80598 80363 80158 79949 79707 79419 79088 78731 78367
1379.3359 78004 77641 77270 76885 76490 76097 75714 75346 74991 74643 74298
1384.6393 73951 73596 73214 72776 72256 71670 71086 70585 70192 69873 69572
1389.9425 69249 68883 68481 68064 67646 67216 66745 66190 65518 64745 63967
1395.2458 63303 62803 62420 62079 61716 61282 60755 60164 59593 59126 58778
1400.5491 58510 58268 58018 57748 57462 57171 56879 56580 56265 55933 55592
1405.8524 55248 54894 54510 54078 53594 53072 52537 52010 51499 50998 50499
1411.1556 49996 49495 48997 48505 48018 47538 47071 46619 46183 45764 45369
1416.4590 45009 44696 44444 44275 44230 44358 44645 44990 45304 45578 45840
1421.7622 46131 46495 46976 47604 48355 49152 49918 50634 51328 52029 52751
1427.0656 53486 54224 54985 55839 56892 58208 59718 61243 62639 63910 65168
1432.3688 66532 68029 69557 70955 72122 73073 73933 74898 76142 77573 78823
1437.6721 79697 80286 80731 81112 81444 81709 81872 81911 81824 81628 81345
1442.9753 80989 80562 80055 79464 78791 78041 77201 76225 75028 73536 71777
1448.2787 69913 68111 66397 64665 62776 60646 58338 56117 54386 53478 53502
1453.5819 54363 55898 57971 60521 63574 67193 71293 75358 78626 80822 82255
1458.8853 83289 84107 84776 85320 85758 86109 86389 86606 86767 86883 86983
1464.1885 87126 87379 87756 88188 88595 88950 89255 89520 89745 89924 90052
1469.4918 90128 90152 90114 89996 89770 89448 89143 89015 89073 89201 89304
1474.7950 89346 89322 89252 89180 89145 89152 89172 89170 89125 89028 88885
1480.0984 88708 88521 88343 88189 88061 87951 87845 87729 87591 87426 87227
1485.4016 86988 86697 86348 85959 85575 85232 84921 84581 84138 83569 82975
1490.7050 82503 82168 81861 81467 80928 80241 79439 78556 77615 76639 75710
1496.0082 75010 74732 74938 75589 76646 78050 79622 81074 82186 82930 83405
1501.3115 83727 83961 84120 84198 84195 84122 83985 83762 83385 82742 81833
1506.6147 81080 80927 81160 81447 81676 81840 81950 82006 81999 81922 81782
1511.9181 81603 81420 81257 81109 80953 80759 80505 80167 79729 79210 78713
1517.2213 78372 78201 78114 78025 77883 77647 77271 76736 76156 75796 75727
1522.5247 75772 75803 75785 75719 75614 75487 75363 75260 75178 75104 75030
1527.8279 74967 74933 74935 74958 74971 74948 74872 74737 74540 74275 73945
1533.1312 73599 73339 73230 73237 73277 73291 73255 73161 73011 72793 72477
1538.4344 72002 71343 70678 70344 70347 70442 70494 70490 70459 70419 70367
1543.7378 70287 70179 70072 70012 70020 70073 70127 70152 70131 70060 69938
1549.0410 69778 69615 69495 69445 69445 69456 69446 69393 69279 69103 68910
1554.3444 68787 68776 68833 68888 68889 68795 68547 68048 67222 66432 66469
1559.6476 67002 67432 67693 67854 67957 68016 68031 67987 67871 67680 67442
1564.9509 67212 67042 66941 66883 66831 66752 66608 66354 65960 65493 65124
1570.2542 64948 64895 64861 64779 64626 64411 64168 63930 63701 63430 62997
1575.5575 62249 61215 60266 59692 59399 59189 58940 58607 58190 57718 57226
1580.8607 56746 56302 55919 55636 55499 55560 55864 56451 57351 58570 60075
1586.1641 61784 63571 65293 66819 68053 68938 69456 69616 69445 68986 68301
1591.4674 67458 66525 65548 64555 63558 62572 61622 60740 59944 59230 58571
1596.7706 57941 57325 56731 56184 55720 55382 55213 55242 55476 55902 56498
1602.0740 57248 58139 59150 60236 61340 62418 63455 64461 65446 66405 67309
1607.3772 68129 68850 69486 70059 70577 71031 71401 71677 71862 71966 71992
1612.6805 71940 71816 71640 71434 71202 70917 70505 69883 69121 68513 68256
1617.9838 68284 68475 68758 69093 69439 69746 69966 70079 70089 70018 69920
1623.2871 69869 69916 70034 70163 70262 70316 70319 70273 70192 70101 70025
1628.5903 69965 69906 69827 69713 69558 69357 69117 68855 68583 68305 68006
1633.8937 67657 67219 66689 66182 65882 65796 65784 65746 65656 65519 65345
1639.1969 65143 64914 64660 64382 64078 63752 63409 63059 62711 62368 62024
1644.5002 61661 61254 60785 60272 59796 59443 59205 58996 58752 58460 58132
1649.8035 57779 57401 56988 56519 55953 55231 54381 53854 53896 54007 53986
1655.1068 53865 53679 53439 53150 52820 52461 52089 51716 51341 50961 50573
1660.4100 50174 49764 49339 48902 48475 48095 47776 47489 47189 46844 46446
1665.7134 46010 45564 45133 44721 44309 43868 43396 42947 42593 42339 42126
1671.0166 41904 41656 41402 41165 40954 40765 40593 40446 40353 40339 40371
1676.3199 40391 40376 40334 40284 40249 40260 40351 40539 40800 41071 41293
1681.6232 41432 41484 41469 41494 41914 43272 45127 46391 47064 47516 47955
1686.9265 48463 49076 49807 50650 51582 52566 53569 54563 55530 56456 57324
1692.2297 58112 58799 59372 59840 60245 60697 61402 62536 63859 64844 65365
1697.5331 65599 65698 65736 65785 66048 66921 68306 69325 69800 70028 70203
1702.8363 70416 70713 71108 71583 72113 72706 73411 74250 75160 76026 76775
1708.1396 77406 77962 78499 79048 79608 80145 80622 81021 81344 81599 81803
1713.4429 81987 82200 82485 82831 83164 83412 83556 83653 83856 84353 85108
1718.7462 85859 86455 86912 87289 87626 87942 88250 88561 88890 89249 89636
1724.0494 90034 90420 90784 91126 91447 91743 91998 92201 92347 92445 92518
1729.3528 92599 92712 92854 92994 93097 93139 93098 92943 92651 92312 92184
1734.6560 92351 92629 92883 93080 93220 93305 93328 93278 93146 92949 92749
1739.9594 92625 92596 92610 92605 92541 92409 92229 92056 91940 91884 91849
1745.2626 91790 91677 91503 91276 91028 90805 90652 90578 90563 90571 90577
1750.5659 90581 90609 90690 90827 90993 91158 91301 91409 91475 91500 91489
1755.8691 91459 91433 91434 91468 91523 91579 91617 91627 91598 91521 91392
1761.1725 91233 91097 91034 91042 91078 91101 91093 91056 91002 90944 90884
1766.4757 90811 90706 90562 90395 90241 90122 90025 89921 89778 89577 89329
1771.7791 89103 89002 89034 89113 89169 89183 89161 89119 89068 89014 88956
1777.0823 88887 88804 88704 88587 88457 88324 88203 88114 88064 88041 88021
1782.3856 87981 87905 87794 87657 87517 87400 87317 87258 87206 87149 87083
1787.6888 87014 86950 86888 86822 86736 86617 86465 86305 86201 86225 86388
1792.9922 86606 86783 86879 86910 86913 86927 86981 87068 87160 87227 87261
1798.2954 87271 87276 87294 87330 87372 87411 87446 87491 87560 87657 87773
1803.5988 87890 87987 88051 88074 88058 88016 87972 87947 87950 87971 87984
1808.9020 87970 87925 87868 87837 87862 87947 88059 88158 88220 88241 88236
1814.2053 88221 88208 88195 88177 88143 88095 88041 87990 87950 87915 87874
1819.5085 87819 87752 87688 87648 87648 87682 87728 87755 87739 87677 87594
1824.8119 87535 87542 87614 87708 87780 87802 87767 87679 87559 87465 87473
1830.1151 87616 87844 88081 88280 88428 88526 88587 88629 88670 88716 88767
1835.4185 88812 88841 88848 88836 88814 88792 88778 88770 88766 88761 88751
1840.7217 88731 88695 88638 88553 88441 88317 88222 88214 88307 88447 88570
1846.0250 88647 88679 88685 88689 88708 88744 88778 88790 88775 88742 88711
1851.3282 88699 88712 88740 88774 88806 88837 88867 88885 88878 88834 88756
1856.6316 88665 88585 88536 88516 88508 88493 88459 88409 88356 88316 88294
1861.9348 88289 88289 88278 88246 88187 88108 88022 87950 87905 87890 87894
1867.2382 87893 87862 87789 87690 87606 87577 87612 87691 87780 87843 87854
1872.5414 87798 87681 87531 87385 87277 87223 87224 87268 87335 87405 87462
1877.8447 87489 87479 87438 87380 87330 87304 87305 87319 87329 87326 87311
1883.1479 87291 87268 87230 87161 87060 86946 86850 86789 86756 86717 86637
1888.4513 86507 86363 86276 86304 86440 86625 86798 86919 86974 86964 86899
1893.7545 86793 86669 86560 86498 86492 86526 86566 86579 86554 86503 86451
1899.0579 86422 86423 86437 86432 86379 86270 86129 86002 85937 85953 86028
1904.3611 86103 86122 86060 85939 85815 85734 85710 85715 85700 85633 85515
1909.6644 85380 85269 85196 85147 85087 84988 84838 84654 84468 84324 84254
1914.9677 84263 84327 84411 84485 84540 84593 84674 84790 84909 84981 84973
1920.2710 84884 84752 84638 84613 84720 84940 85191 85390 85499 85540 85556
1925.5742 85584 85639 85717 85809 85906 86000 86071 86090 86032 85895 85711
1930.8776 85533 85419 85402 85486 85643 85824 85971 86032 85979 85821 85614
1936.1808 85440 85378 85470 85703 86020 86347 86622 86813 86915 86938 86905
1941.4841 86855 86836 86891 87013 87145 87221 87205 87106 86973 86873 86853
1946.7874 86919 87033 87143 87212 87227 87198 87139 87065 86985 86904 86836
1952.0907 86797 86802 86859 86958 87080 87199 87298 87375 87433 87475 87488
1957.3939 87450 87347 87180 86974 86759 86563 86409 86321 86327 86442 86653
1962.6973 86910 87150 87326 87429 87473 87454 87322 87003 86470 85807 85198
