##TITLE= STDACIDOACETILSALICILICO
##JCAMP-DX= 4.24
##DATA TYPE= INFRARED SPECTRUM
##ORIGIN= JASCO
##OWNER= 
##DATE= 22/03/30
##TIME= 18:33:43
##SPECTROMETER/DATA SYSTEM= 
##RESOLUTION= 
##DELTAX=   0.48211674
##XUNITS= 1/CM
##YUNITS= TRANSMITTANCE
##XFACTOR= 1.00000
##YFACTOR= 1E-005
##FIRSTX=   599.7532
##LASTX=  4000.1226
##NPOINTS=     7054
##FIRSTY=      0.62546
##MAXY=      0.97238
##MINY=      0.46510
##XYDATA= (X++(Y..Y))
599.7532 62546 64235 65988 67708 69377 71029 72708 74422 76122 77711 79084
605.0565 80179 81012 81663 82243 82836 83471 84112 84690 85146 85464 85669
610.3598 85807 85909 85975 85985 85923 85802 85656 85526 85435 85375 85323
615.6631 85252 85151 85033 84925 84857 84844 84880 84934 84958 84904 84734
620.9664 84449 84101 83783 83587 83563 83683 83854 83953 83887 83644 83294
626.2697 82946 82685 82530 82438 82338 82181 81963 81724 81519 81383 81310
631.5729 81263 81192 81056 80831 80513 80107 79628 79099 78558 78048 77604
636.8762 77226 76871 76461 75902 75116 74075 72822 71462 70135 68973 68068
642.1795 67463 67158 67128 67333 67720 68228 68796 69389 70018 70750 71682
647.4828 72888 74356 75951 77449 78630 79383 79745 79860 79886 79921 79974
652.7861 79978 79850 79539 79055 78456 77822 77224 76704 76267 75877 75467
658.0894 74959 74295 73461 72487 71429 70331 69208 68053 66849 65577 64231
663.3926 62834 61460 60221 59216 58484 58001 57745 57823 58751 61805 67676
668.6959 73262 76119 77421 78392 79453 80625 81774 82736 83417 83843 84130
673.9992 84399 84703 85008 85223 85263 85101 84802 84489 84285 84232 84274
679.3025 84285 84157 83865 83481 83123 82882 82773 82741 82709 82621 82459
684.6058 82230 81939 81588 81178 80733 80294 79911 79616 79411 79267 79136
689.9091 78973 78748 78455 78096 77677 77193 76638 76011 75334 74643 73970
695.2123 73317 72643 71870 70920 69761 68423 66993 65571 64226 62964 61740
700.5156 60480 59116 57623 56039 54482 53137 52236 52021 52688 54337 56924
705.8189 60255 64027 67905 71594 74891 77693 79979 81775 83128 84090 84729
711.1222 85125 85373 85562 85748 85938 86099 86180 86147 86001 85782 85549
716.4255 85347 85196 85088 85003 84922 84845 84780 84731 84688 84626 84518
721.7288 84356 84144 83893 83612 83305 82980 82655 82358 82112 81918 81757
727.0320 81594 81407 81200 80999 80840 80743 80699 80674 80622 80505 80303
732.3353 80023 79691 79343 79010 78706 78419 78125 77802 77449 77093 76775
737.6386 76527 76356 76230 76094 75889 75572 75130 74583 73974 73355 72770
742.9419 72244 71780 71360 70951 70508 69989 69358 68599 67720 66753 65735
748.2452 64693 63636 62559 61460 60351 59271 58273 57414 56746 56318 56173
753.5485 56363 56939 57943 59382 61213 63357 65727 68258 70905 73605 76244
758.8517 78660 80707 82322 83549 84495 85263 85911 86451 86873 87182 87410
764.1550 87598 87758 87864 87863 87720 87446 87099 86747 86427 86130 85813
769.4583 85440 85006 84544 84097 83691 83323 82967 82599 82208 81801 81383
774.7616 80952 80501 80026 79541 79069 78629 78225 77838 77441 77010 76542
780.0649 76045 75533 75014 74484 73936 73363 72764 72141 71493 70812 70083
785.3682 69288 68418 67472 66468 65442 64446 63550 62823 62325 62083 62083
790.6714 62279 62609 63017 63468 63943 64427 64895 65315 65654 65895 66040
795.9747 66103 66091 65997 65796 65464 64981 64342 63559 62656 61674 60665
801.2780 59696 58838 58165 57760 57720 58160 59187 60870 63187 66007 69104
806.5813 72207 75074 77548 79578 81196 82474 83475 84244 84805 85183 85411
811.8846 85530 85574 85564 85506 85391 85214 84979 84705 84426 84177 83978
817.1879 83823 83679 83495 83231 82874 82447 82003 81591 81243 80956 80697
822.4911 80423 80091 79675 79176 78623 78062 77542 77095 76720 76387 76050
827.7944 75669 75223 74712 74140 73503 72791 71994 71119 70195 69262 68346
833.0977 67451 66550 65603 64585 63500 62385 61299 60304 59450 58773 58302
838.4010 58068 58115 58494 59254 60427 62004 63929 66093 68357 70573 72623
843.7043 74434 75987 77298 78399 79315 80056 80626 81032 81291 81433 81488
849.0076 81484 81444 81387 81333 81293 81268 81243 81189 81081 80914 80706
854.3109 80496 80323 80210 80152 80125 80098 80047 79960 79834 79669 79466
859.6141 79229 78971 78716 78494 78328 78222 78156 78093 77997 77847 77654
864.9174 77454 77287 77183 77140 77130 77113 77059 76960 76831 76696 76568
870.2207 76449 76328 76195 76048 75894 75741 75595 75458 75335 75225 75128
875.5240 75036 74931 74799 74630 74428 74210 73985 73753 73497 73201 72859
880.8273 72489 72119 71779 71478 71205 70942 70678 70422 70198 70029 69927
886.1306 69890 69906 69961 70044 70140 70229 70292 70313 70291 70234 70148
891.4338 70030 69871 69660 69400 69103 68784 68454 68107 67734 67333 66910
896.7371 66481 66056 65633 65199 64746 64275 63807 63360 62943 62543 62134
902.0404 61686 61189 60652 60097 59547 59013 58488 57961 57413 56834 56220
907.3437 55571 54893 54197 53490 52780 52070 51357 50638 49915 49200 48514
912.6470 47886 47345 46918 46632 46510 46577 46856 47369 48127 49137 50394
917.9503 51877 53547 55337 57155 58900 60482 61844 62970 63878 64606 65189
923.2535 65654 66019 66292 66481 66596 66647 66658 66657 66683 66773 66951
928.5568 67221 67568 67964 68386 68820 69266 69731 70222 70736 71267 71805
933.8601 72346 72892 73449 74017 74591 75159 75710 76235 76735 77219 77694
939.1634 78168 78639 79098 79525 79902 80218 80480 80707 80925 81151 81384
944.4667 81613 81820 81997 82143 82262 82359 82438 82503 82561 82621 82691
949.7700 82767 82836 82885 82906 82901 82884 82873 82878 82899 82927 82943
955.0732 82933 82887 82806 82701 82585 82472 82368 82273 82183 82091 81988
960.3765 81859 81690 81464 81170 80800 80350 79822 79217 78540 77799 77009
965.6798 76193 75386 74630 73963 73417 73005 72726 72572 72536 72619 72826
970.9831 73160 73622 74207 74909 75722 76631 77607 78601 79553 80402 81110
976.2864 81667 82089 82404 82640 82810 82915 82952 82919 82827 82698 82560
981.5897 82438 82345 82278 82227 82177 82117 82040 81945 81827 81683 81514
986.8929 81324 81126 80940 80778 80645 80534 80431 80323 80197 80050 79880
992.1962 79685 79460 79208 78936 78658 78387 78128 77870 77592 77267 76877
997.4995 76418 75903 75359 74828 74355 73987 73751 73648 73648 73691 73711
1002.8028 73652 73484 73205 72832 72389 71895 71363 70796 70195 69563 68903
1008.1061 68226 67546 66881 66252 65682 65195 64821 64599 64573 64790 65289
1013.4094 66090 67179 68508 70000 71560 73098 74543 75850 76994 77958 78733
1018.7126 79315 79713 79956 80088 80153 80183 80185 80148 80054 79889 79656
1024.0160 79369 79040 78682 78297 77887 77459 77026 76604 76208 75849 75529
1029.3192 75253 75023 74847 74729 74661 74622 74578 74494 74348 74135 73867
1034.6226 73564 73245 72928 72630 72375 72194 72117 72164 72339 72633 73028
1039.9258 73503 74033 74596 75170 75744 76319 76909 77528 78176 78840 79492
1045.2291 80100 80639 81091 81446 81699 81857 81937 81968 81979 81990 82004
1050.5323 82014 82007 81981 81941 81895 81850 81804 81755 81700 81641 81579
1055.8357 81512 81434 81335 81213 81070 80921 80781 80660 80560 80474 80391
1061.1389 80302 80204 80098 79985 79859 79714 79547 79359 79163 78977 78811
1066.4423 78666 78530 78386 78218 78022 77809 77592 77387 77202 77033 76864
1071.7455 76671 76437 76159 75849 75532 75231 74957 74703 74451 74183 73887
1077.0488 73557 73189 72787 72355 71909 71466 71041 70638 70248 69859 69469
1082.3521 69091 68747 68460 68241 68093 68013 68002 68059 68179 68342 68515
1087.6554 68656 68730 68714 68606 68410 68143 67820 67467 67116 66806 66579
1092.9586 66473 66521 66754 67197 67878 68809 69981 71351 72839 74346 75772
1098.2620 77043 78115 78983 79662 80181 80571 80858 81063 81205 81298 81357
1103.5652 81398 81443 81506 81591 81690 81781 81845 81869 81858 81825 81781
1108.8685 81732 81672 81589 81477 81336 81170 80989 80795 80585 80354 80097
1114.1718 79819 79532 79249 78981 78731 78493 78260 78028 77796 77567 77342
1119.4751 77119 76886 76629 76334 75989 75597 75166 74717 74273 73853 73467
1124.7783 73114 72781 72447 72095 71709 71280 70798 70258 69653 68974 68210
1130.0817 67341 66350 65221 63956 62584 61173 59838 58730 58022 57868 58357
1135.3849 59471 61073 62933 64791 66430 67720 68630 69198 69493 69579 69503
1140.6882 69307 69037 68745 68489 68318 68258 68310 68447 68625 68793 68906
1145.9915 68938 68887 68767 68602 68406 68183 67931 67645 67329 66994 66655
1151.2948 66326 66009 65703 65401 65095 64781 64456 64120 63775 63428 63090
1156.5980 62773 62488 62241 62030 61845 61672 61497 61312 61118 60920 60727
1161.9014 60544 60369 60193 60001 59778 59520 59232 58929 58628 58341 58067
1167.2046 57796 57512 57203 56866 56506 56134 55760 55389 55023 54660 54296
1172.5079 53930 53563 53204 52859 52535 52235 51954 51682 51412 51139 50866
1177.8112 50596 50335 50086 49848 49619 49401 49198 49017 48873 48778 48745
1183.1145 48786 48908 49116 49415 49811 50316 50939 51687 52558 53544 54627
1188.4177 55787 57005 58264 59545 60836 62123 63397 64651 65876 67063 68200
1193.7211 69279 70295 71252 72158 73020 73843 74620 75338 75979 76531 76992
1199.0243 77368 77668 77896 78045 78098 78032 77830 77489 77021 76457 75829
1204.3276 75170 74501 73835 73176 72529 71902 71310 70765 70281 69863 69509
1209.6309 69210 68950 68714 68485 68245 67976 67662 67291 66858 66370 65844
1214.9342 65304 64780 64298 63885 63560 63341 63237 63258 63412 63709 64163
1220.2374 64790 65600 66594 67758 69070 70499 72013 73585 75190 76800 78387
1225.5408 79923 81378 82727 83949 85031 85965 86755 87412 87951 88386 88727
1230.8440 88979 89147 89242 89276 89268 89231 89176 89104 89012 88896 88751
1236.1473 88580 88382 88163 87925 87675 87420 87169 86928 86700 86484 86277
1241.4506 86079 85892 85724 85580 85457 85347 85236 85109 84960 84790 84607
1246.7539 84421 84232 84038 83826 83585 83310 82998 82651 82266 81839 81361
1252.0571 80827 80238 79609 78964 78336 77771 77318 77032 76959 77120 77493
1257.3605 78011 78574 79082 79463 79691 79785 79792 79763 79730 79701 79662
1262.6637 79588 79452 79231 78916 78516 78056 77567 77069 76557 76008 75396
1267.9670 74722 74022 73364 72812 72404 72148 72025 71994 72010 72031 72027
1273.2703 71979 71873 71695 71430 71069 70611 70063 69437 68748 68011 67237
1278.5736 66438 65622 64798 63972 63155 62358 61595 60882 60231 59656 59164
1283.8768 58760 58440 58201 58040 57955 57943 57996 58102 58239 58381 58510
1289.1802 58616 58698 58759 58805 58843 58883 58938 59025 59157 59346 59593
1294.4834 59893 60229 60583 60929 61243 61501 61686 61789 61805 61735 61581
1299.7867 61350 61053 60711 60356 60024 59756 59585 59535 59616 59824 60139
1305.0900 60538 60995 61491 62019 62581 63190 63857 64588 65379 66214 67079
1310.3933 67962 68863 69791 70765 71794 72872 73976 75076 76151 77198 78228
1315.6965 79250 80266 81263 82220 83118 83946 84694 85356 85929 86414 86822
1320.9999 87167 87462 87717 87935 88118 88272 88402 88520 88639 88771 88924
1326.3031 89107 89321 89566 89832 90112 90396 90678 90956 91226 91489 91740
1331.6064 91972 92179 92355 92500 92618 92720 92815 92907 92994 93072 93135
1336.9097 93181 93214 93237 93255 93264 93263 93244 93209 93157 93093 93020
1342.2130 92938 92849 92754 92657 92560 92461 92358 92244 92117 91980 91839
1347.5162 91702 91569 91436 91291 91122 90923 90693 90438 90166 89884 89595
1352.8196 89295 88970 88606 88196 87750 87285 86817 86343 85848 85317 84745
1358.1228 84135 83492 82811 82091 81336 80566 79805 79068 78355 77666 77024
1363.4261 76477 76060 75775 75596 75492 75437 75416 75421 75452 75513 75608
1368.7294 75736 75894 76073 76270 76483 76717 76977 77276 77641 78109 78718
1374.0327 79473 80320 81175 81984 82748 83494 84248 85012 85762 86462 87081
1379.3359 87611 88063 88453 88795 89094 89349 89559 89725 89851 89943 90007
1384.6393 90052 90080 90094 90087 90048 89972 89863 89745 89635 89536 89440
1389.9425 89336 89213 89070 88910 88741 88564 88374 88157 87895 87578 87223
1395.2458 86867 86543 86254 85981 85702 85390 85021 84592 84134 83695 83296
1400.5491 82920 82540 82141 81725 81304 80890 80479 80053 79600 79132 78690
1405.8524 78312 78005 77753 77538 77352 77197 77074 76976 76888 76788 76658
1411.1556 76489 76274 76012 75704 75354 74969 74556 74115 73644 73145 72634
1416.4590 72142 71708 71371 71173 71193 71530 72191 73009 73813 74563 75294
1421.7622 76056 76888 77810 78794 79742 80532 81105 81489 81745 81922 82051
1427.0656 82146 82212 82250 82255 82224 82155 82053 81926 81782 81622 81443
1432.3688 81244 81032 80821 80628 80459 80314 80194 80118 80126 80243 80420
1437.6721 80589 80739 80887 81051 81235 81425 81598 81729 81804 81822 81785
1442.9753 81687 81513 81246 80880 80430 79921 79368 78759 78044 77173 76159
1448.2787 75112 74153 73309 72519 71690 70738 69626 68391 67144 66009 65055
1453.5819 64286 63680 63222 62930 62870 63152 63882 65016 66296 67477 68517
1458.8853 69467 70375 71294 72288 73419 74707 76109 77538 78927 80292 81751
1464.1885 83455 85384 87217 88606 89511 90106 90565 90979 91366 91703 91966
1469.4918 92155 92288 92390 92474 92531 92527 92411 92198 91967 91761 91571
1474.7950 91364 91107 90771 90353 89880 89381 88856 88278 87620 86866 86024
1480.0984 85141 84309 83648 83261 83193 83423 83886 84493 85148 85773 86323
1485.4016 86806 87269 87780 88371 89002 89603 90145 90684 91330 92148 93026
1490.7050 93731 94168 94412 94570 94702 94824 94931 95011 95059 95074 95067
1496.0082 95056 95056 95068 95077 95066 95024 94954 94870 94788 94712 94636
1501.3115 94553 94465 94378 94302 94241 94192 94147 94095 94015 93859 93568
1506.6147 93197 92944 92845 92812 92792 92770 92747 92724 92704 92688 92677
1511.9181 92668 92656 92637 92605 92563 92512 92460 92414 92383 92366 92347
1517.2213 92302 92231 92150 92072 92001 91938 91884 91847 91840 91865 91899
1522.5247 91929 91955 91982 92009 92032 92046 92047 92042 92038 92041 92051
1527.8279 92060 92060 92048 92023 91989 91952 91912 91871 91826 91770 91693
1533.1312 91597 91506 91446 91421 91413 91405 91389 91364 91334 91307 91292
1538.4344 91304 91348 91385 91339 91212 91053 90894 90750 90633 90544 90478
1543.7378 90425 90376 90328 90280 90230 90173 90107 90028 89935 89829 89710
1549.0410 89583 89456 89339 89234 89133 89029 88917 88794 88654 88491 88308
1554.3444 88129 87982 87866 87764 87656 87528 87362 87139 86863 86688 86786
1559.6476 86914 86940 86907 86856 86803 86751 86701 86648 86589 86516 86428
1564.9509 86326 86217 86109 86005 85902 85793 85660 85471 85175 84766 84344
1570.2542 84017 83787 83594 83394 83168 82921 82676 82454 82269 82128 82053
1575.5575 82103 82337 82695 83031 83302 83541 83786 84048 84314 84558 84754
1580.8607 84890 84974 85020 85037 85028 84990 84923 84829 84716 84589 84455
1586.1641 84312 84158 83988 83798 83585 83353 83106 82848 82581 82300 82000
1591.4674 81674 81318 80924 80485 79989 79436 78842 78242 77680 77188 76767
1596.7706 76389 76007 75564 75006 74294 73405 72339 71111 69747 68265 66675
1602.0740 64998 63294 61697 60391 59562 59363 59907 61282 63504 66456 69853
1607.3772 73322 76553 79383 81770 83715 85219 86301 87025 87492 87797 88006
1612.6805 88150 88236 88272 88268 88238 88190 88121 88013 87864 87706 87572
1617.9838 87459 87349 87228 87092 86944 86791 86637 86484 86324 86149 85954
1623.2871 85750 85564 85411 85283 85165 85047 84919 84776 84610 84423 84226
1628.5903 84033 83850 83674 83498 83315 83119 82910 82693 82475 82260 82047
1633.8937 81826 81584 81314 81042 80825 80669 80532 80386 80225 80061 79904
1639.1969 79765 79648 79551 79468 79389 79303 79202 79088 78968 78851 78742
1644.5002 78637 78526 78391 78217 78011 77798 77599 77407 77211 77007 76801
1649.8035 76592 76377 76148 75894 75590 75183 74596 73976 73676 73540 73384
1655.1068 73182 72940 72663 72356 72027 71681 71323 70948 70555 70151 69750
1660.4100 69367 69004 68636 68218 67716 67158 66627 66169 65761 65356 64923
1665.7134 64464 64004 63568 63159 62743 62262 61684 61071 60545 60141 59775
1671.0166 59352 58851 58326 57850 57453 57114 56777 56367 55840 55272 54824
1676.3199 54543 54366 54230 54110 54009 53942 53931 53997 54137 54321 54511
1681.6232 54675 54800 54892 55013 55381 56311 57436 58091 58383 58561 58742
1686.9265 58969 59266 59644 60100 60613 61149 61675 62173 62641 63082 63500
1692.2297 63892 64253 64575 64861 65139 65493 66097 67120 68369 69356 69946
1697.5331 70290 70518 70706 70974 71704 73588 76257 78069 78907 79390 79850
1702.8363 80413 81115 81931 82781 83566 84248 84864 85459 86020 86497 86867
1708.1396 87150 87386 87609 87832 88041 88213 88333 88407 88450 88478 88499
1713.4429 88520 88544 88571 88588 88585 88556 88498 88398 88236 88015 87797
1718.7462 87635 87515 87406 87288 87153 87003 86845 86685 86530 86382 86240
1724.0494 86103 85966 85823 85668 85498 85316 85127 84935 84734 84507 84233
1729.3528 83904 83538 83183 82874 82613 82376 82134 81847 81462 80961 80467
1734.6560 80112 79839 79554 79216 78826 78404 77976 77557 77136 76679 76162
1739.9594 75625 75138 74729 74365 73990 73556 73037 72464 71910 71432 71028
1745.2626 70666 70319 69983 69673 69417 69233 69118 69048 69013 69036 69174
1750.5659 69492 70001 70611 71194 71696 72134 72546 72955 73368 73791 74248
1755.8691 74778 75413 76131 76853 77501 78049 78519 78944 79357 79792 80289
1761.1725 80870 81486 82022 82395 82620 82759 82870 82982 83098 83211 83317
1766.4757 83432 83590 83829 84158 84531 84885 85187 85449 85706 86021 86490
1771.7791 87202 88080 88893 89524 90023 90479 90952 91461 91985 92475 92894
1777.0823 93242 93545 93831 94109 94374 94609 94807 94977 95136 95294 95446
1782.3856 95584 95705 95807 95891 95959 96013 96059 96103 96146 96186 96217
1787.6888 96236 96246 96252 96260 96277 96302 96331 96351 96350 96319 96268
1792.9922 96220 96189 96171 96158 96139 96106 96059 96002 95943 95886 95824
1798.2954 95751 95659 95553 95446 95356 95292 95253 95234 95230 95235 95242
1803.5988 95245 95241 95234 95235 95258 95316 95413 95534 95655 95750 95804
1808.9020 95820 95813 95807 95823 95869 95940 96023 96104 96176 96238 96291
1814.2053 96339 96383 96426 96463 96490 96500 96493 96476 96455 96438 96426
1819.5085 96417 96410 96405 96404 96406 96409 96412 96416 96424 96437 96447
1824.8119 96439 96400 96335 96265 96213 96189 96191 96211 96228 96209 96125
1830.1151 95988 95844 95732 95662 95630 95623 95626 95618 95581 95515 95430
1835.4185 95348 95290 95265 95271 95294 95317 95330 95333 95333 95335 95342
1840.7217 95353 95363 95367 95365 95356 95342 95332 95335 95357 95392 95431
1846.0250 95473 95514 95550 95569 95555 95500 95409 95298 95185 95087 95014
1851.3282 94974 94966 94986 95027 95076 95119 95144 95150 95151 95171 95230
1856.6316 95331 95452 95561 95631 95657 95652 95638 95628 95622 95611 95593
1861.9348 95581 95590 95637 95722 95838 95968 96093 96199 96272 96299 96273
1867.2382 96198 96090 95981 95908 95895 95929 95980 96021 96041 96041 96029
1872.5414 96008 95983 95954 95925 95900 95885 95879 95876 95866 95843 95806
1877.8447 95762 95723 95694 95679 95679 95690 95701 95696 95661 95595 95517
1883.1479 95461 95460 95521 95616 95692 95703 95636 95521 95405 95334 95334
1888.4513 95407 95525 95640 95699 95686 95618 95533 95468 95448 95480 95548
1893.7545 95619 95661 95662 95635 95611 95609 95632 95669 95708 95751 95802
1899.0579 95866 95931 95976 95980 95941 95877 95819 95794 95809 95854 95908
1904.3611 95955 95985 96000 96000 95984 95952 95906 95852 95802 95764 95745
1909.6644 95749 95776 95820 95866 95899 95910 95910 95922 95975 96081 96217
1914.9677 96337 96396 96375 96289 96175 96069 95985 95906 95808 95696 95597
1920.2710 95548 95566 95646 95747 95811 95790 95689 95566 95489 95498 95589
1925.5742 95718 95816 95819 95706 95517 95340 95263 95324 95491 95671 95767
1930.8776 95720 95540 95289 95041 94856 94758 94745 94797 94889 94986 95056
1936.1808 95084 95082 95092 95160 95304 95490 95645 95697 95616 95433 95223
1941.4841 95076 95054 95153 95305 95440 95542 95642 95776 95945 96104 96182
1946.7874 96134 95984 95815 95722 95767 95937 96154 96315 96347 96234 96017
1952.0907 95759 95508 95283 95081 94901 94756 94669 94662 94732 94841 94927
1957.3939 94931 94833 94675 94552 94567 94774 95138 95543 95854 95987 95943
1962.6973 95792 95617 95467 95353 95264 95185 95103 94995 94828 94586 94294
