##TITLE= STDNICOTINAMIDE
##JCAMP-DX= 4.24
##DATA TYPE= INFRARED SPECTRUM
##ORIGIN= JASCO
##OWNER= 
##DATE= 22/03/31
##TIME= 09:33:19
##SPECTROMETER/DATA SYSTEM= 
##RESOLUTION= 
##DELTAX=   0.48211674
##XUNITS= 1/CM
##YUNITS= TRANSMITTANCE
##XFACTOR= 1.00000
##YFACTOR= 1E-005
##FIRSTX=   599.7532
##LASTX=  4000.1226
##NPOINTS=     7054
##FIRSTY=      0.52557
##MAXY=      1.00000
##MINY=      0.52554
##XYDATA= (X++(Y..Y))
599.7532 52557 52554 52577 52686 52907 53226 53602 53994 54374 54741 55112
605.0565 55505 55926 56363 56802 57241 57692 58173 58683 59195 59660 60037
610.3598 60316 60518 60685 60854 61038 61230 61411 61561 61661 61692 61636
615.6631 61481 61221 60859 60411 59909 59407 58984 58733 58738 59041 59612
620.9664 60350 61124 61828 62427 62952 63466 64029 64692 65496 66479 67660
626.2697 69016 70480 71966 73406 74779 76104 77403 78659 79801 80734 81387
631.5729 81753 81902 81951 82016 82172 82431 82764 83116 83437 83694 83870
636.8762 83964 83978 83920 83797 83620 83398 83134 82819 82427 81922 81268
642.1795 80445 79472 78423 77440 76712 76424 76682 77467 78641 80011 81406
647.4828 82732 83973 85143 86237 87207 87998 88585 89002 89313 89569 89778
652.7861 89908 89922 89805 89575 89268 88919 88562 88231 87967 87797 87722
658.0894 87714 87727 87733 87727 87724 87737 87768 87820 87915 88095 88405
663.3926 88857 89415 90019 90638 91310 92144 93315 95049 97493 99961 100000
668.6959 96899 93606 91431 90064 89101 88335 87707 87228 86905 86697 86534
673.9992 86371 86224 86165 86277 86594 87088 87689 88328 88970 89609 90245
679.3025 90850 91360 91693 91784 91596 91109 90316 89237 87942 86572 85305
684.6058 84294 83607 83201 82951 82714 82398 81993 81553 81151 80821 80544
689.9091 80268 79947 79576 79190 78840 78546 78266 77897 77315 76439 75280
695.2123 73930 72515 71129 69810 68556 67377 66325 65490 64959 64765 64870
700.5156 65195 65667 66268 67034 68013 69221 70614 72105 73606 75065 76476
705.8189 77852 79198 80497 81708 82782 83676 84365 84851 85164 85366 85532
711.1222 85729 85996 86328 86685 87013 87257 87377 87356 87199 86939 86635
716.4255 86352 86148 86050 86048 86111 86204 86305 86410 86525 86650 86775
721.7288 86883 86957 86987 86978 86947 86925 86947 87038 87197 87402 87608
727.0320 87769 87856 87869 87841 87817 87839 87925 88058 88197 88293 88310
732.3353 88239 88101 87939 87802 87728 87738 87829 87979 88158 88332 88477
737.6386 88585 88660 88718 88773 88833 88895 88947 88976 88983 88980 88992
742.9419 89046 89149 89287 89425 89523 89557 89526 89446 89332 89192 89029
748.2452 88852 88690 88582 88556 88605 88677 88696 88591 88338 87972 87570
753.5485 87212 86945 86764 86629 86493 86331 86156 85995 85863 85738 85569
758.8517 85317 84987 84634 84332 84127 84009 83918 83774 83529 83187 82803
764.1550 82440 82132 81870 81610 81313 80968 80606 80280 80034 79873 79755
769.4583 79605 79358 78994 78556 78131 77809 77641 77616 77670 77722 77705
774.7616 77599 77427 77243 77102 77031 77030 77075 77145 77237 77364 77544
780.0649 77778 78040 78287 78483 78621 78723 78831 78984 79197 79463 79761
785.3682 80065 80351 80595 80773 80874 80910 80925 80977 81113 81340 81623
790.6714 81900 82121 82275 82389 82510 82672 82884 83127 83380 83628 83867
795.9747 84100 84332 84568 84820 85108 85447 85832 86229 86588 86867 87053
801.2780 87164 87232 87283 87324 87354 87378 87413 87482 87587 87707 87806
806.5813 87855 87864 87872 87925 88047 88224 88414 88568 88654 88667 88618
811.8846 88533 88444 88386 88388 88455 88566 88673 88727 88705 88622 88523
817.1879 88460 88460 88509 88560 88558 88462 88266 87999 87705 87421 87160
822.4911 86901 86602 86218 85715 85087 84347 83525 82661 81809 81037 80431
827.7944 80087 80092 80501 81315 82463 83818 85224 86539 87675 88611 89373
833.0977 90008 90548 91005 91370 91634 91798 91878 91901 91898 91894 91903
838.4010 91926 91952 91959 91933 91868 91782 91702 91658 91665 91715 91781
843.7043 91834 91855 91843 91810 91773 91739 91708 91672 91630 91580 91528
849.0076 91478 91435 91408 91409 91449 91528 91629 91720 91768 91750 91670
854.3109 91551 91430 91339 91297 91302 91336 91372 91386 91365 91313 91244
859.6141 91173 91107 91045 90980 90915 90859 90825 90820 90841 90876 90910
864.9174 90929 90923 90883 90802 90681 90533 90390 90282 90235 90250 90310
870.2207 90381 90433 90441 90397 90311 90212 90137 90123 90181 90295 90422
875.5240 90514 90548 90532 90499 90486 90505 90544 90570 90555 90492 90392
880.8273 90280 90178 90099 90049 90022 90015 90016 90014 89994 89947 89869
886.1306 89770 89670 89597 89573 89608 89687 89778 89842 89851 89803 89722
891.4338 89644 89599 89600 89637 89697 89766 89842 89922 90001 90063 90090
896.7371 90073 90017 89936 89847 89757 89669 89584 89506 89443 89401 89381
902.0404 89378 89385 89397 89410 89418 89408 89366 89288 89187 89086 89016
907.3437 88995 89028 89104 89209 89329 89449 89552 89622 89644 89617 89556
912.6470 89485 89424 89382 89358 89344 89331 89317 89297 89264 89211 89134
917.9503 89041 88945 88862 88798 88752 88720 88700 88696 88707 88729 88749
923.2535 88757 88749 88731 88716 88713 88721 88729 88721 88681 88593 88454
928.5568 88271 88064 87863 87690 87551 87426 87279 87074 86790 86434 86035
933.8601 85631 85262 84967 84781 84736 84852 85132 85556 86081 86648 87191
939.1634 87660 88025 88284 88461 88593 88708 88818 88911 88968 88974 88934
944.4667 88869 88808 88770 88758 88759 88754 88729 88684 88629 88578 88541
949.7700 88519 88507 88492 88465 88419 88352 88272 88189 88120 88080 88080
955.0732 88121 88190 88261 88300 88282 88192 88043 87858 87671 87502 87361
960.3765 87244 87140 87043 86950 86860 86770 86674 86573 86467 86357 86235
965.6798 86080 85863 85566 85198 84807 84469 84264 84253 84452 84835 85338
970.9831 85880 86379 86775 87042 87183 87229 87218 87183 87144 87108 87076
976.2864 87045 87008 86959 86888 86797 86690 86583 86488 86412 86354 86308
981.5897 86274 86257 86264 86297 86348 86397 86424 86419 86383 86328 86274
986.8929 86236 86220 86220 86221 86204 86157 86079 85977 85862 85738 85598
992.1962 85427 85215 84969 84712 84481 84312 84227 84228 84301 84419 84555
997.4995 84685 84792 84867 84909 84928 84937 84954 84988 85037 85090 85129
1002.8028 85141 85121 85075 85012 84939 84858 84766 84660 84539 84411 84281
1008.1061 84158 84042 83927 83804 83660 83489 83292 83077 82855 82638 82430
1013.4094 82231 82037 81847 81667 81504 81357 81216 81056 80854 80596 80295
1018.7126 79977 79678 79417 79188 78968 78722 78422 78051 77607 77094 76521
1024.0160 75899 75237 74543 73817 73060 72284 71534 70900 70516 70537 71096
1029.3192 72263 74012 76216 78684 81197 83562 85636 87337 88638 89546 90088
1034.6226 90296 90216 89911 89473 89013 88646 88459 88492 88731 89115 89563
1039.9258 90001 90375 90659 90849 90949 90971 90932 90857 90775 90713 90682
1045.2291 90668 90645 90580 90457 90280 90075 89869 89682 89520 89376 89240
1050.5323 89106 88969 88831 88690 88549 88410 88280 88165 88071 88001 87955
1055.8357 87934 87937 87964 88015 88083 88159 88229 88279 88296 88279 88232
1061.1389 88163 88080 87986 87875 87746 87600 87449 87307 87184 87081 86989
1066.4423 86900 86806 86708 86607 86506 86409 86318 86237 86172 86127 86102
1071.7455 86094 86097 86106 86113 86109 86088 86049 85995 85938 85887 85841
1077.0488 85791 85723 85626 85503 85366 85228 85098 84971 84834 84673 84480
1082.3521 84260 84026 83797 83589 83411 83260 83127 83000 82872 82744 82629
1087.6554 82541 82491 82482 82505 82540 82570 82583 82586 82599 82647 82749
1092.9586 82906 83099 83298 83474 83613 83710 83770 83799 83794 83755 83685
1098.2620 83604 83534 83500 83509 83552 83607 83647 83656 83632 83586 83533
1103.5652 83488 83459 83449 83453 83462 83468 83462 83440 83407 83373 83355
1108.8685 83363 83400 83456 83512 83554 83573 83571 83555 83531 83500 83456
1114.1718 83391 83300 83184 83046 82886 82706 82507 82296 82079 81862 81646
1119.4751 81419 81168 80888 80586 80281 80002 79775 79625 79566 79614 79777
1124.7783 80061 80460 80957 81525 82134 82753 83355 83919 84430 84880 85268
1130.0817 85596 85867 86086 86257 86384 86472 86525 86545 86535 86496 86436
1135.3849 86361 86281 86198 86112 86017 85910 85792 85661 85517 85356 85177
1140.6882 84988 84801 84632 84491 84374 84264 84141 83993 83818 83629 83440
1145.9915 83257 83078 82888 82668 82405 82098 81761 81417 81094 80809 80572
1151.2948 80377 80220 80098 80022 80009 80074 80221 80439 80705 80993 81284
1156.5980 81566 81837 82101 82358 82607 82844 83063 83256 83418 83546 83639
1161.9014 83703 83745 83775 83800 83822 83838 83846 83843 83836 83830 83829
1167.2046 83831 83826 83805 83763 83703 83635 83569 83509 83453 83396 83335
1172.5079 83270 83206 83147 83095 83049 83008 82968 82926 82880 82834 82791
1177.8112 82755 82728 82704 82673 82624 82553 82463 82369 82285 82217 82164
1183.1145 82115 82056 81981 81891 81794 81701 81619 81545 81472 81395 81307
1188.4177 81208 81101 80986 80863 80731 80585 80424 80247 80053 79846 79629
1193.7211 79405 79176 78938 78682 78398 78076 77715 77318 76895 76455 76005
1199.0243 75549 75097 74670 74308 74071 74025 74229 74719 75493 76508 77687
1204.3276 78931 80144 81242 82170 82905 83449 83826 84068 84208 84277 84301
1209.6309 84299 84282 84252 84206 84140 84055 83959 83862 83774 83698 83633
1214.9342 83570 83500 83415 83313 83200 83085 82981 82899 82841 82802 82766
1220.2374 82719 82651 82561 82458 82352 82255 82171 82101 82043 81993 81945
1225.5408 81891 81825 81743 81645 81539 81436 81346 81279 81239 81227 81245
1230.8440 81290 81361 81456 81574 81716 81880 82063 82255 82443 82613 82754
1236.1473 82862 82939 82995 83037 83071 83096 83108 83102 83075 83033 82982
1241.4506 82932 82886 82846 82809 82773 82740 82711 82685 82660 82634 82606
1246.7539 82577 82550 82526 82505 82482 82457 82432 82413 82404 82404 82410
1252.0571 82416 82420 82426 82438 82464 82504 82556 82615 82679 82746 82819
1257.3605 82896 82974 83046 83106 83151 83186 83221 83267 83325 83385 83429
1262.6637 83442 83420 83374 83324 83287 83275 83286 83312 83337 83347 83332
1267.9670 83291 83234 83176 83134 83116 83123 83145 83173 83196 83214 83226
1273.2703 83234 83233 83218 83187 83144 83097 83053 83016 82983 82948 82907
1278.5736 82860 82808 82752 82691 82627 82561 82495 82433 82377 82324 82274
1283.8768 82224 82175 82128 82083 82039 81993 81941 81882 81817 81753 81695
1289.1802 81647 81609 81581 81560 81547 81543 81549 81561 81571 81570 81549
1294.4834 81508 81457 81410 81381 81375 81385 81398 81397 81375 81331 81273
1299.7867 81214 81164 81128 81106 81092 81080 81065 81047 81028 81010 80993
1305.0900 80973 80944 80906 80861 80815 80775 80743 80721 80705 80693 80683
1310.3933 80676 80667 80655 80634 80604 80565 80518 80466 80408 80344 80272
1315.6965 80194 80116 80045 79987 79947 79921 79901 79878 79847 79806 79762
1320.9999 79717 79671 79619 79557 79479 79391 79298 79206 79117 79026 78925
1326.3031 78809 78680 78546 78414 78289 78171 78053 77924 77780 77618 77441
1331.6064 77254 77057 76849 76627 76390 76139 75874 75595 75297 74976 74633
1336.9097 74279 73932 73622 73389 73291 73395 73742 74316 75051 75872 76725
1342.2130 77575 78387 79115 79713 80150 80425 80563 80599 80565 80486 80381
1347.5162 80263 80138 80010 79878 79739 79594 79448 79310 79184 79073 78978
1352.8196 78896 78827 78771 78728 78691 78655 78611 78559 78500 78440 78383
1358.1228 78327 78267 78196 78113 78020 77923 77830 77746 77666 77583 77488
1363.4261 77378 77256 77126 76990 76850 76708 76567 76429 76296 76165 76035
1368.7294 75905 75773 75636 75490 75332 75162 74982 74798 74613 74432 74255
1374.0327 74078 73896 73703 73495 73275 73043 72805 72563 72320 72079 71837
1379.3359 71594 71344 71084 70810 70521 70224 69928 69640 69362 69090 68814
1384.6393 68531 68239 67938 67629 67316 67005 66711 66441 66195 65965 65753
1389.9425 65564 65412 65307 65249 65228 65239 65290 65409 65646 66046 66592
1395.2458 67184 67715 68150 68521 68883 69302 69836 70496 71211 71870 72415
1400.5491 72873 73295 73721 74159 74601 75042 75497 76004 76594 77252 77906
1405.8524 78490 78988 79436 79874 80325 80786 81237 81658 82038 82376 82668
1411.1556 82905 83073 83163 83173 83112 82989 82811 82578 82283 81918 81486
1416.4590 81010 80518 80025 79512 78928 78249 77563 77029 76702 76527 76449
1421.7622 76454 76583 76929 77601 78627 79880 81166 82375 83502 84577 85606
1427.0656 86559 87395 88095 88675 89168 89597 89955 90220 90394 90504 90589
1432.3688 90675 90769 90865 90950 91017 91067 91103 91122 91117 91089 91061
1437.6721 91052 91060 91079 91102 91128 91155 91185 91214 91236 91242 91228
1442.9753 91195 91152 91109 91072 91043 91014 90980 90939 90894 90857 90837
1448.2787 90834 90832 90815 90778 90720 90649 90575 90508 90454 90410 90364
1453.5819 90308 90239 90159 90075 89996 89936 89902 89896 89907 89921 89932
1458.8853 89937 89935 89925 89907 89884 89856 89826 89796 89766 89741 89725
1464.1885 89721 89721 89712 89687 89653 89621 89599 89589 89584 89575 89550
1469.4918 89506 89440 89357 89256 89138 89009 88899 88842 88829 88826 88811
1474.7950 88776 88716 88633 88533 88428 88322 88210 88082 87934 87764 87575
1480.0984 87368 87148 86917 86678 86439 86210 85999 85817 85671 85570 85524
1485.4016 85555 85701 85999 86448 86975 87476 87889 88224 88533 88858 89176
1490.7050 89420 89563 89633 89669 89688 89694 89683 89649 89590 89507 89414
1496.0082 89334 89289 89276 89276 89268 89238 89179 89094 88996 88892 88792
1501.3115 88701 88626 88568 88524 88480 88428 88358 88261 88125 87932 87699
1506.6147 87549 87578 87694 87807 87883 87915 87907 87870 87817 87761 87711
1511.9181 87671 87636 87597 87547 87481 87399 87306 87206 87117 87059 87047
1517.2213 87055 87043 86997 86925 86837 86744 86661 86617 86650 86733 86784
1522.5247 86780 86743 86691 86636 86580 86529 86488 86457 86432 86405 86374
1527.8279 86340 86307 86275 86240 86195 86133 86050 85945 85818 85677 85535
1533.1312 85422 85363 85347 85336 85306 85248 85169 85074 84975 84877 84791
1538.4344 84726 84691 84681 84666 84630 84587 84544 84497 84437 84360 84270
1543.7378 84175 84088 84017 83965 83921 83870 83804 83721 83622 83513 83403
1549.0410 83308 83242 83205 83171 83117 83037 82938 82830 82722 82620 82526
1554.3444 82437 82341 82233 82110 81967 81791 81555 81221 80794 80566 80866
1559.6476 81193 81279 81216 81088 80934 80771 80607 80446 80298 80174 80085
1564.9509 80026 79972 79895 79785 79643 79478 79295 79101 78898 78687 78472
1570.2542 78250 78013 77753 77467 77157 76840 76533 76252 76011 75846 75870
1575.5575 76313 77337 78613 79607 80218 80599 80872 81077 81201 81222 81131
1580.8607 80948 80702 80422 80124 79814 79495 79168 78832 78489 78139 77785
1586.1641 77424 77050 76650 76206 75706 75145 74532 73890 73254 72666 72174
1591.4674 71827 71672 71748 72082 72677 73498 74462 75449 76350 77096 77666
1596.7706 78074 78339 78483 78527 78498 78422 78320 78205 78078 77935 77772
1602.0740 77591 77396 77193 76991 76793 76603 76421 76248 76084 75931 75788
1607.3772 75654 75527 75406 75292 75188 75094 75008 74927 74851 74785 74738
1612.6805 74717 74717 74724 74718 74690 74650 74644 74763 75077 75484 75809
1617.9838 76019 76174 76334 76529 76760 77004 77236 77448 77670 77972 78438
1623.2871 79070 79721 80231 80575 80817 81024 81249 81530 81889 82302 82701
1628.5903 83026 83270 83458 83622 83778 83923 84043 84122 84156 84156 84139
1633.8937 84126 84146 84223 84344 84425 84413 84337 84243 84152 84070 83995
1639.1969 83926 83859 83790 83715 83629 83527 83409 83277 83138 82993 82839
1644.5002 82668 82473 82256 82047 81904 81859 81860 81824 81720 81562 81373
1649.8035 81165 80947 80716 80472 80220 79990 79874 79902 79810 79558 79271
1655.1068 78993 78729 78475 78226 77980 77734 77485 77230 76965 76689 76409
1660.4100 76130 75862 75606 75367 75149 74957 74785 74621 74455 74278 74088
1665.7134 73882 73665 73438 73205 72973 72755 72581 72478 72437 72416 72387
1671.0166 72340 72275 72190 72081 71953 71820 71711 71686 71820 72107 72409
1676.3199 72613 72725 72798 72871 72975 73137 73380 73704 74064 74390 74630
1681.6232 74771 74822 74815 74840 75178 76235 77547 78267 78528 78638 78734
1686.9265 78864 79047 79290 79585 79906 80221 80507 80756 80970 81150 81294
1692.2297 81398 81459 81476 81452 81393 81321 81306 81488 81918 82410 82791
1697.5331 83039 83179 83243 83328 83826 85557 88341 90403 91421 91991 92474
1702.8363 93010 93641 94348 95065 95713 96260 96734 97167 97549 97851 98062
1708.1396 98200 98293 98367 98436 98502 98558 98593 98600 98573 98512 98419
1713.4429 98311 98219 98184 98221 98297 98364 98387 98358 98304 98295 98382
1718.7462 98519 98644 98733 98790 98819 98825 98811 98777 98725 98655 98576
1724.0494 98495 98419 98351 98290 98235 98189 98153 98123 98089 98040 97963
1729.3528 97853 97725 97607 97515 97443 97371 97276 97131 96919 96692 96593
1734.6560 96655 96763 96853 96917 96965 97007 97046 97085 97122 97154 97177
1739.9594 97190 97193 97190 97181 97163 97137 97104 97070 97037 97002 96958
1745.2626 96898 96822 96734 96641 96549 96462 96379 96297 96214 96132 96060
1750.5659 96015 96016 96065 96142 96220 96282 96327 96354 96370 96377 96386
1755.8691 96403 96435 96478 96516 96533 96521 96486 96437 96384 96330 96274
1761.1725 96205 96111 95992 95862 95735 95620 95518 95433 95365 95307 95249
1766.4757 95181 95103 95036 95016 95060 95152 95252 95332 95386 95420 95454
1771.7791 95517 95616 95712 95777 95809 95822 95824 95818 95801 95768 95718
1777.0823 95653 95580 95506 95434 95370 95316 95274 95246 95230 95219 95202
1782.3856 95170 95119 95050 94978 94927 94920 94959 95020 95075 95107 95115
1787.6888 95112 95117 95138 95176 95216 95243 95244 95218 95175 95132 95096
1792.9922 95059 95005 94931 94839 94737 94636 94546 94477 94428 94394 94372
1798.2954 94360 94358 94363 94367 94368 94371 94392 94442 94515 94594 94655
1803.5988 94690 94704 94712 94723 94740 94752 94745 94712 94659 94605 94564
1808.9020 94546 94548 94560 94573 94582 94588 94595 94601 94602 94590 94563
1814.2053 94525 94489 94464 94453 94451 94450 94445 94443 94451 94476 94512
1819.5085 94544 94559 94549 94520 94486 94459 94444 94438 94431 94412 94373
1824.8119 94311 94234 94160 94099 94052 94013 93974 93931 93891 93876 93913
1830.1151 94000 94100 94177 94215 94215 94187 94148 94116 94104 94114 94137
1835.4185 94161 94172 94164 94140 94109 94081 94059 94039 94011 93968 93911
1840.7217 93853 93810 93795 93811 93858 93922 93977 93988 93940 93861 93783
1846.0250 93725 93689 93673 93669 93668 93663 93656 93653 93660 93678 93703
1851.3282 93726 93742 93750 93756 93773 93804 93846 93884 93897 93866 93786
1856.6316 93668 93536 93418 93332 93278 93244 93209 93165 93122 93105 93137
1861.9348 93224 93349 93477 93574 93619 93617 93585 93543 93500 93461 93428
1867.2382 93408 93415 93451 93492 93496 93434 93321 93196 93098 93045 93035
1872.5414 93049 93063 93061 93043 93022 93011 93014 93023 93026 93014 92985
1877.8447 92952 92931 92945 93008 93118 93258 93394 93486 93506 93446 93327
1883.1479 93186 93066 92998 92991 93030 93086 93128 93139 93116 93065 93001
1888.4513 92937 92891 92871 92877 92891 92893 92871 92823 92763 92717 92712
1893.7545 92761 92853 92947 92996 92975 92891 92781 92679 92598 92533 92471
1899.0579 92406 92354 92336 92370 92445 92524 92558 92514 92394 92240 92115
1904.3611 92073 92131 92265 92415 92516 92525 92438 92294 92158 92086 92103
1909.6644 92188 92293 92372 92407 92408 92399 92395 92403 92415 92427 92436
1914.9677 92446 92465 92497 92548 92620 92704 92772 92786 92725 92602 92449
1920.2710 92303 92192 92130 92121 92155 92216 92294 92387 92494 92602 92684
1925.5742 92710 92654 92520 92342 92178 92078 92068 92139 92254 92366 92434
1930.8776 92441 92389 92301 92208 92137 92107 92120 92157 92193 92195 92144
1936.1808 92030 91869 91699 91579 91572 91718 92006 92372 92714 92934 92969
1941.4841 92811 92518 92198 91951 91812 91759 91755 91782 91829 91882 91920
1946.7874 91928 91919 91924 91974 92068 92173 92245 92267 92260 92265 92311
1952.0907 92387 92458 92489 92485 92480 92517 92608 92720 92786 92740 92541
1957.3939 92187 91712 91184 90698 90358 90242 90368 90672 91033 91337 91537
1962.6973 91673 91838 92108 92488 92911 93277 93505 93562 93458 93221 92875
