##TITLE= STDACIDOBENZOICO
##JCAMP-DX= 4.24
##DATA TYPE= INFRARED SPECTRUM
##ORIGIN= JASCO
##OWNER= 
##DATE= 22/03/30
##TIME= 18:08:37
##SPECTROMETER/DATA SYSTEM= 
##RESOLUTION= 
##DELTAX=   0.48211674
##XUNITS= 1/CM
##YUNITS= TRANSMITTANCE
##XFACTOR= 1.00000
##YFACTOR= 1E-005
##FIRSTX=   599.7532
##LASTX=  4000.1226
##NPOINTS=     7054
##FIRSTY=      0.71293
##MAXY=      0.95803
##MINY=      0.36269
##XYDATA= (X++(Y..Y))
599.7532 71293 71103 70881 70613 70324 70064 69876 69776 69745 69747 69754
605.0565 69772 69831 69958 70143 70330 70438 70404 70223 69950 69666 69427
610.3598 69231 69033 68789 68496 68204 67971 67825 67731 67614 67404 67092
615.6631 66748 66502 66494 66797 67362 68024 68575 68862 68835 68553 68154
620.9664 67793 67577 67521 67547 67542 67420 67172 66863 66592 66429 66382
626.2697 66389 66364 66239 65993 65653 65279 64941 64703 64596 64614 64712
631.5729 64814 64844 64760 64573 64340 64130 63984 63898 63834 63748 63627
636.8762 63498 63409 63388 63418 63430 63335 63070 62643 62136 61669 61348
642.1795 61219 61258 61385 61497 61498 61327 60969 60460 59881 59327 58878
647.4828 58565 58365 58218 58068 57895 57713 57545 57391 57222 56992 56678
652.7861 56289 55868 55462 55098 54770 54442 54075 53639 53129 52561 51959
658.0894 51347 50741 50139 49524 48867 48133 47306 46394 45428 44451 43501
663.3926 42607 41793 41081 40474 39950 39457 38959 38520 38620 40782 46764
668.6959 54066 59051 62179 64694 67075 69275 71029 72086 72402 72163 71646
673.9992 71032 70336 69471 68368 67054 65635 64232 62909 61649 60371 58974
679.3025 57385 55607 53739 51960 50479 49467 48998 49022 49409 50038 50883
684.6058 52012 53500 55298 57172 58750 59674 59779 59182 58197 57150 56217
689.9091 55399 54630 53894 53274 52881 52748 52765 52716 52386 51679 50634
695.2123 49367 47982 46558 45178 43948 42969 42272 41779 41351 40877 40327
700.5156 39746 39187 38648 38083 37468 36860 36405 36269 36563 37306 38444
705.8189 39904 41643 43650 45910 48373 50947 53508 55941 58172 60189 62053
711.1222 63876 65787 67887 70210 72714 75284 77779 80073 82086 83783 85156
716.4255 86212 86978 87509 87881 88173 88438 88690 88899 89026 89049 88988
721.7288 88890 88801 88753 88748 88766 88766 88703 88550 88316 88041 87783
727.0320 87593 87490 87457 87454 87434 87367 87249 87098 86938 86788 86645
732.3353 86489 86295 86049 85762 85467 85195 84955 84720 84437 84059 83568
737.6386 82988 82367 81753 81164 80592 80007 79383 78715 78020 77329 76668
742.9419 76042 75432 74809 74150 73455 72752 72079 71459 70891 70357 69839
748.2452 69341 68895 68549 68343 68291 68382 68587 68872 69205 69556 69897
753.5485 70209 70483 70719 70914 71050 71096 71023 70834 70586 70383 70335
758.8517 70495 70806 71115 71243 71068 70590 69923 69249 68739 68481 68456
764.1550 68576 68742 68892 69021 69163 69360 69641 70010 70449 70934 71451
769.4583 72002 72591 73210 73822 74374 74815 75129 75349 75540 75767 76058
774.7616 76395 76728 77007 77198 77290 77291 77216 77079 76898 76693 76490
780.0649 76310 76171 76080 76031 76007 75979 75922 75819 75677 75520 75370
785.3682 75231 75081 74886 74630 74326 74015 73745 73531 73354 73165 72921
790.6714 72612 72261 71915 71608 71344 71099 70831 70508 70119 69672 69194
795.9747 68713 68250 67812 67388 66955 66486 65965 65399 64813 64241 63708
801.2780 63226 62793 62409 62091 61869 61783 61868 62136 62573 63139 63777
806.5813 64419 64990 65420 65652 65662 65481 65214 65027 65117 65643 66667
811.8846 68119 69807 71485 72928 74009 74714 75125 75360 75521 75661 75794
817.1879 75912 76014 76119 76259 76461 76727 77034 77334 77584 77756 77855
822.4911 77907 77944 77986 78028 78051 78031 77959 77846 77719 77606 77527
827.7944 77490 77487 77505 77526 77531 77505 77449 77378 77324 77316 77361
833.0977 77441 77516 77549 77531 77480 77433 77415 77427 77446 77446 77413
838.4010 77359 77312 77293 77308 77340 77361 77349 77297 77214 77113 77004
843.7043 76893 76781 76678 76598 76551 76536 76530 76498 76412 76263 76070
849.0076 75869 75695 75566 75478 75404 75316 75197 75050 74896 74762 74659
854.3109 74581 74504 74410 74303 74214 74192 74267 74436 74652 74846 74960
859.6141 74969 74893 74774 74652 74545 74447 74342 74220 74087 73962 73860
864.9174 73783 73722 73661 73589 73511 73441 73392 73362 73336 73293 73215
870.2207 73095 72941 72773 72609 72464 72343 72240 72138 72022 71885 71732
875.5240 71579 71446 71344 71270 71207 71136 71044 70926 70792 70650 70509
880.8273 70375 70249 70132 70027 69930 69836 69731 69601 69435 69234 69017
886.1306 68807 68628 68483 68358 68226 68061 67857 67628 67400 67195 67018
891.4338 66862 66715 66568 66422 66277 66127 65959 65755 65510 65234 64955
896.7371 64701 64492 64329 64192 64056 63896 63700 63469 63217 62962 62717
902.0404 62491 62282 62080 61873 61648 61399 61125 60835 60540 60251 59978
907.3437 59727 59498 59286 59086 58888 58686 58479 58273 58075 57890 57713
912.6470 57532 57332 57107 56865 56627 56414 56243 56111 56005 55908 55808
917.9503 55706 55611 55534 55480 55443 55410 55370 55316 55253 55190 55137
923.2535 55096 55065 55038 55017 55008 55019 55047 55078 55091 55068 55009
928.5568 54926 54848 54796 54787 54822 54899 55014 55165 55350 55566 55803
933.8601 56055 56327 56633 57000 57460 58029 58705 59459 60240 60987 61641
939.1634 62157 62515 62725 62828 62887 62972 63143 63433 63842 64340 64885
944.4667 65436 65966 66465 66939 67403 67878 68376 68908 69468 70042 70610
949.7700 71153 71664 72149 72624 73104 73591 74072 74528 74944 75320 75672
955.0732 76022 76384 76760 77141 77515 77875 78221 78547 78840 79085 79268
960.3765 79395 79490 79583 79696 79832 79978 80113 80225 80313 80391 80469
965.6798 80554 80640 80721 80787 80835 80864 80877 80876 80869 80860 80858
970.9831 80871 80903 80953 81011 81059 81077 81053 80993 80916 80851 80824
976.2864 80848 80919 81022 81134 81236 81311 81350 81353 81327 81285 81241
981.5897 81205 81176 81151 81121 81080 81025 80956 80874 80782 80690 80604
986.8929 80535 80488 80465 80460 80461 80455 80426 80365 80268 80132 79953
992.1962 79725 79448 79130 78792 78469 78194 77998 77901 77897 77938 77929
997.4995 77741 77274 76530 75665 74961 74717 75109 76092 77412 78721 79730
1002.8028 80310 80504 80449 80292 80128 79994 79897 79832 79792 79765 79735
1008.1061 79688 79622 79545 79464 79379 79278 79155 79010 78859 78717 78591
1013.4094 78474 78350 78206 78036 77843 77629 77401 77164 76926 76700 76496
1018.7126 76316 76149 75975 75768 75502 75155 74710 74155 73482 72680 71723
1024.0160 70580 69244 67779 66376 65343 65039 65744 67523 70163 73222 76176
1029.3192 78595 80265 81206 81599 81676 81625 81553 81487 81415 81311 81160
1034.6226 80965 80744 80521 80316 80140 79992 79869 79766 79682 79611 79540
1039.9258 79449 79322 79158 78973 78800 78671 78602 78590 78614 78645 78659
1045.2291 78640 78585 78502 78400 78292 78185 78084 77990 77904 77824 77750
1050.5323 77683 77619 77557 77496 77440 77397 77376 77378 77393 77401 77384
1055.8357 77331 77246 77138 77020 76900 76783 76672 76570 76478 76389 76291
1061.1389 76167 76008 75812 75587 75341 75081 74811 74530 74240 73941 73631
1066.4423 73306 72963 72603 72231 71851 71467 71074 70667 70247 69827 69441
1071.7455 69144 69009 69120 69551 70347 71497 72927 74508 76086 77520 78716
1077.0488 79639 80307 80766 81069 81260 81369 81413 81402 81348 81258 81143
1082.3521 81009 80863 80715 80575 80453 80356 80281 80219 80153 80073 79972
1087.6554 79854 79725 79594 79469 79350 79237 79122 78997 78856 78696 78522
1092.9586 78339 78153 77963 77766 77556 77330 77088 76830 76554 76256 75935
1098.2620 75595 75259 74964 74757 74682 74769 75025 75424 75915 76433 76915
1103.5652 77316 77615 77820 77953 78035 78080 78093 78074 78025 77956 77885
1108.8685 77822 77770 77718 77651 77553 77420 77257 77078 76896 76716 76536
1114.1718 76353 76162 75961 75748 75523 75280 75017 74735 74444 74153 73869
1119.4751 73586 73289 72955 72570 72132 71650 71135 70597 70033 69439 68815
1124.7783 68173 67546 66975 66514 66214 66128 66299 66751 67484 68465 69630
1130.0817 70900 72188 73421 74542 75517 76328 76975 77470 77836 78099 78287
1135.3849 78421 78512 78564 78580 78563 78521 78464 78405 78349 78300 78254
1140.6882 78205 78146 78070 77973 77859 77735 77615 77513 77435 77375 77319
1145.9915 77251 77162 77053 76937 76832 76749 76691 76652 76620 76585 76545
1151.2948 76502 76460 76420 76378 76325 76252 76153 76029 75889 75746 75610
1156.5980 75489 75384 75290 75199 75104 74998 74881 74754 74620 74478 74325
1161.9014 74151 73952 73724 73475 73217 72962 72719 72487 72260 72031 71802
1167.2046 71580 71382 71219 71095 70998 70902 70774 70585 70318 69969 69554
1172.5079 69091 68602 68095 67570 67019 66437 65821 65186 64554 63964 63459
1177.8112 63084 62877 62859 63026 63351 63788 64280 64772 65214 65571 65822
1183.1145 65962 66004 65977 65925 65906 65983 66216 66655 67327 68226 69310
1188.4177 70512 71755 72964 74084 75077 75924 76614 77148 77535 77799 77970
1193.7211 78081 78154 78198 78211 78187 78125 78029 77908 77771 77627 77485
1199.0243 77351 77230 77119 77011 76896 76765 76620 76466 76310 76160 76015
1204.3276 75875 75737 75597 75452 75298 75134 74960 74782 74609 74447 74302
1209.6309 74174 74057 73948 73848 73759 73692 73652 73643 73660 73692 73726
1214.9342 73754 73772 73781 73780 73770 73747 73709 73652 73579 73489 73387
1220.2374 73277 73165 73059 72966 72887 72821 72762 72702 72634 72555 72460
1225.5408 72350 72227 72096 71960 71825 71692 71560 71428 71293 71157 71018
1230.8440 70875 70723 70563 70396 70227 70062 69901 69740 69577 69406 69229
1236.1473 69050 68873 68699 68526 68351 68172 67992 67815 67645 67482 67321
1241.4506 67156 66980 66789 66587 66381 66180 65989 65807 65630 65451 65262
1246.7539 65061 64844 64614 64371 64117 63853 63580 63296 62997 62684 62357
1252.0571 62025 61695 61375 61069 60773 60479 60178 59868 59550 59230 58916
1257.3605 58612 58315 58021 57723 57420 57113 56810 56521 56253 56012 55798
1262.6637 55611 55449 55303 55153 54967 54703 54331 53851 53309 52789 52384
1267.9670 52147 52059 52035 51962 51750 51368 50844 50251 49670 49165 48763
1273.2703 48468 48269 48156 48120 48150 48232 48349 48485 48627 48766 48891
1278.5736 48993 49062 49091 49080 49030 48947 48840 48718 48587 48451 48314
1283.8768 48181 48055 47941 47842 47760 47699 47664 47662 47699 47781 47913
1289.1802 48101 48351 48669 49060 49526 50068 50681 51365 52114 52921 53779
1294.4834 54680 55620 56596 57606 58641 59684 60717 61724 62696 63630 64523
1299.7867 65376 66188 66958 67691 68394 69077 69750 70423 71106 71807 72533
1305.0900 73291 74085 74907 75736 76532 77248 77833 78251 78490 78560 78481
1310.3933 78275 77956 77529 76997 76370 75668 74919 74153 73384 72614 71835
1315.6965 71034 70204 69337 68419 67422 66318 65089 63756 62379 61044 59829
1320.9999 58784 57936 57303 56901 56747 56850 57204 57785 58560 59493 60554
1326.3031 61722 62984 64335 65772 67291 68887 70548 72255 73974 75669 77304
1331.6064 78850 80290 81607 82790 83831 84735 85520 86209 86824 87375 87859
1336.9097 88268 88604 88877 89109 89317 89507 89669 89789 89862 89895 89903
1342.2130 89897 89885 89868 89847 89822 89794 89763 89725 89678 89619 89547
1347.5162 89464 89375 89281 89184 89086 88988 88896 88817 88757 88723 88716
1352.8196 88732 88769 88819 88874 88926 88965 88986 88985 88962 88921 88868
1358.1228 88807 88746 88684 88623 88564 88505 88444 88375 88288 88173 88030
1363.4261 87873 87716 87567 87425 87284 87143 87006 86875 86756 86645 86539
1368.7294 86428 86308 86173 86025 85867 85708 85559 85430 85324 85230 85129
1374.0327 84998 84829 84638 84449 84275 84117 83970 83826 83677 83516 83339
1379.3359 83147 82947 82748 82560 82387 82226 82067 81898 81716 81523 81330
1384.6393 81149 80988 80844 80710 80572 80418 80243 80051 79852 79648 79436
1389.9425 79217 78990 78762 78536 78312 78085 77851 77603 77336 77043 76721
1395.2458 76380 76038 75708 75398 75104 74821 74539 74251 73961 73681 73420
1400.5491 73176 72943 72716 72497 72287 72086 71884 71666 71416 71129 70817
1405.8524 70498 70173 69833 69468 69076 68667 68258 67862 67481 67106 66731
1411.1556 66356 65985 65620 65262 64909 64564 64232 63917 63622 63353 63115
1416.4590 62915 62757 62641 62568 62539 62555 62606 62671 62736 62805 62890
1421.7622 63007 63179 63433 63787 64220 64672 65093 65476 65854 66261 66712
1427.0656 67205 67731 68295 68942 69740 70730 71851 72964 73968 74873 75769
1432.3688 76739 77795 78856 79811 80598 81247 81851 82537 83374 84230 84850
1437.6721 85180 85345 85449 85536 85610 85653 85644 85567 85420 85211 84951
1442.9753 84644 84285 83864 83377 82834 82251 81634 80952 80132 79078 77760
1448.2787 76274 74773 73315 71847 70266 68510 66637 64891 63637 63169 63564
1453.5819 64719 66477 68700 71303 74235 77429 80674 83507 85461 86542 87093
1458.8853 87397 87587 87718 87820 87912 88004 88101 88206 88324 88468 88660
1464.1885 88916 89217 89495 89693 89813 89891 89957 90021 90085 90143 90191
1469.4918 90236 90283 90346 90430 90532 90614 90595 90439 90218 90014 89854
1474.7950 89734 89644 89575 89508 89430 89336 89231 89124 89024 88936 88863
1480.0984 88801 88739 88664 88568 88453 88327 88199 88074 87956 87849 87757
1485.4016 87678 87606 87523 87416 87282 87138 86994 86838 86627 86314 85906
1490.7050 85478 85083 84703 84293 83828 83310 82760 82208 81680 81214 80879
1496.0082 80767 80921 81307 81881 82629 83518 84427 85183 85682 85945 86060
1501.3115 86108 86134 86146 86144 86130 86114 86111 86133 86190 86280 86365
1506.6147 86361 86248 86094 85921 85731 85532 85341 85169 85017 84879 84748
1511.9181 84622 84505 84400 84309 84231 84165 84117 84089 84073 84032 83906
1517.2213 83691 83455 83255 83099 82979 82883 82803 82736 82675 82604 82512
1522.5247 82412 82314 82226 82151 82089 82035 81980 81918 81851 81791 81747
1527.8279 81724 81716 81710 81694 81664 81622 81573 81526 81493 81484 81500
1533.1312 81524 81521 81470 81386 81291 81202 81126 81067 81036 81045 81114
1538.4344 81265 81479 81623 81555 81368 81209 81104 81019 80915 80778 80617
1543.7378 80449 80285 80132 79989 79852 79720 79595 79482 79387 79318 79280
1549.0410 79270 79266 79234 79154 79043 78927 78825 78747 78700 78689 78705
1554.3444 78709 78668 78585 78484 78385 78306 78270 78320 78523 78794 78726
1559.6476 78395 78095 77864 77674 77504 77346 77196 77055 76920 76785 76642
1564.9509 76481 76308 76135 75974 75831 75709 75606 75521 75436 75320 75147
1570.2542 74936 74713 74483 74241 73982 73711 73449 73214 73020 72864 72719
1575.5575 72518 72179 71715 71245 70832 70464 70118 69784 69465 69167 68892
1580.8607 68639 68411 68225 68114 68122 68299 68687 69319 70211 71352 72695
1586.1641 74156 75628 76997 78168 79073 79686 80015 80096 79978 79712 79345
1591.4674 78916 78450 77963 77459 76935 76380 75788 75158 74494 73809 73116
1596.7706 72433 71780 71180 70650 70209 69871 69650 69560 69603 69773 70055
1602.0740 70436 70904 71442 72024 72619 73209 73794 74384 74991 75606 76204
1607.3772 76754 77242 77674 78060 78402 78682 78881 78993 79030 79007 78936
1612.6805 78819 78659 78469 78266 78064 77859 77616 77276 76827 76395 76124
1617.9838 76025 76054 76176 76366 76591 76812 76993 77123 77212 77275 77309
1623.2871 77291 77208 77086 76961 76852 76763 76689 76620 76544 76444 76309
1628.5903 76146 75971 75796 75623 75453 75280 75102 74917 74726 74533 74337
1633.8937 74142 73954 73799 73699 73624 73501 73305 73055 72779 72496 72217
1639.1969 71944 71674 71404 71135 70870 70610 70353 70096 69837 69580 69329
1644.5002 69084 68849 68632 68447 68292 68119 67861 67507 67106 66713 66358
1649.8035 66045 65764 65498 65237 64979 64743 64563 64382 64057 63669 63300
1655.1068 62957 62629 62303 61973 61633 61288 60944 60605 60276 59960 59663
1660.4100 59387 59131 58876 58590 58239 57831 57411 57018 56648 56278 55896
1665.7134 55509 55140 54808 54515 54239 53936 53566 53143 52735 52389 52085
1671.0166 51787 51484 51196 50945 50738 50566 50415 50276 50155 50062 49995
1676.3199 49933 49866 49798 49741 49709 49722 49796 49936 50125 50326 50508
1681.6232 50660 50779 50885 51060 51566 52755 54138 54947 55360 55683 56051
1686.9265 56515 57099 57815 58653 59579 60538 61480 62377 63226 64038 64822
1692.2297 65576 66284 66925 67492 68011 68577 69373 70554 71856 72770 73222
1697.5331 73418 73513 73585 73711 74084 75006 76208 76905 77122 77177 77225
1702.8363 77330 77523 77822 78221 78704 79260 79886 80556 81201 81756 82207
1708.1396 82594 82970 83375 83816 84263 84670 85012 85300 85561 85820 86096
1713.4429 86408 86775 87190 87605 87961 88240 88479 88754 89157 89691 90183
1718.7462 90500 90695 90862 91060 91308 91606 91940 92286 92621 92925 93185
1724.0494 93401 93586 93758 93933 94117 94304 94480 94634 94763 94876 94982
1729.3528 95087 95185 95262 95312 95349 95392 95461 95575 95721 95803 95689
1734.6560 95450 95242 95101 95005 94931 94863 94798 94741 94695 94653 94593
1739.9594 94496 94370 94237 94112 93998 93889 93777 93658 93535 93417 93310
1745.2626 93218 93142 93085 93043 93004 92951 92873 92774 92670 92574 92493
1750.5659 92435 92405 92407 92433 92469 92503 92532 92557 92585 92625 92683
1755.8691 92753 92814 92834 92796 92715 92623 92545 92492 92464 92455 92455
1761.1725 92446 92410 92346 92266 92185 92111 92044 91983 91928 91879 91832
1766.4757 91781 91718 91635 91537 91440 91363 91316 91300 91317 91368 91444
1771.7791 91501 91474 91360 91213 91075 90955 90847 90746 90648 90553 90463
1777.0823 90377 90296 90220 90153 90101 90063 90034 89997 89940 89862 89773
1782.3856 89687 89611 89547 89493 89444 89395 89342 89284 89223 89163 89103
1787.6888 89048 88998 88956 88926 88913 88925 88969 89055 89176 89300 89377
1792.9922 89383 89340 89283 89239 89221 89232 89259 89285 89296 89295 89300
1798.2954 89327 89387 89474 89565 89634 89674 89695 89715 89740 89768 89789
1803.5988 89795 89786 89769 89756 89756 89773 89801 89828 89839 89826 89797
1808.9020 89770 89767 89801 89868 89940 89983 89978 89934 89870 89808 89758
1814.2053 89723 89697 89677 89663 89655 89654 89656 89652 89635 89599 89549
1819.5085 89497 89459 89447 89465 89501 89531 89536 89508 89461 89422 89422
1824.8119 89477 89568 89650 89689 89687 89662 89636 89633 89671 89760 89880
1830.1151 89983 90038 90052 90047 90041 90042 90055 90074 90096 90112 90121
1835.4185 90123 90125 90136 90167 90217 90272 90308 90308 90267 90197 90123
1840.7217 90068 90046 90053 90081 90117 90149 90158 90128 90061 89986 89930
1846.0250 89904 89908 89938 89984 90032 90074 90108 90135 90156 90167 90164
1851.3282 90143 90104 90052 89994 89941 89904 89891 89905 89932 89954 89949
1856.6316 89908 89843 89775 89728 89712 89718 89723 89709 89667 89604 89539
1861.9348 89484 89448 89428 89417 89410 89406 89412 89432 89469 89520 89581
1867.2382 89643 89701 89749 89775 89764 89707 89605 89471 89323 89182 89068
1872.5414 88994 88967 88978 89014 89056 89088 89092 89061 88996 88915 88850
1877.8447 88830 88865 88936 89004 89027 88991 88914 88833 88786 88786 88822
1883.1479 88868 88901 88910 88893 88848 88770 88656 88520 88394 88321 88341
1888.4513 88466 88664 88851 88945 88922 88826 88719 88646 88620 88633 88667
1893.7545 88699 88712 88696 88644 88561 88454 88340 88233 88150 88102 88098
1899.0579 88137 88203 88277 88336 88371 88381 88370 88338 88274 88171 88039
1904.3611 87914 87846 87869 87974 88108 88201 88197 88093 87927 87758 87624
1909.6644 87531 87456 87383 87310 87248 87202 87161 87108 87031 86944 86873
1914.9677 86849 86884 86974 87106 87266 87441 87607 87738 87816 87840 87820
1920.2710 87770 87699 87619 87543 87488 87464 87470 87492 87523 87569 87652
1925.5742 87787 87967 88151 88277 88303 88236 88137 88087 88133 88256 88379
1930.8776 88416 88323 88129 87918 87779 87760 87853 88008 88172 88316 88438
1936.1808 88545 88643 88722 88770 88779 88755 88712 88665 88627 88605 88607
1941.4841 88642 88707 88770 88785 88717 88572 88391 88240 88188 88280 88509
1946.7874 88801 89052 89177 89152 89023 88886 88840 88939 89155 89394 89537
1952.0907 89507 89306 89011 88740 88595 88624 88804 89053 89272 89384 89364
1957.3939 89254 89129 89062 89070 89098 89056 88879 88587 88274 88038 87910
1962.6973 87832 87722 87556 87411 87416 87659 88091 88519 88691 88461 87911
