##TITLE= metile p idrossibenzoato
##JCAMP-DX= 4.24
##DATA TYPE= INFRARED SPECTRUM
##ORIGIN= JASCO
##OWNER= 
##DATE= 22/03/30
##TIME= 16:52:13
##SPECTROMETER/DATA SYSTEM= 
##RESOLUTION= 
##DELTAX=   0.48211674
##XUNITS= 1/CM
##YUNITS= TRANSMITTANCE
##XFACTOR= 1.00000
##YFACTOR= 1E-005
##FIRSTX=   599.7532
##LASTX=  4000.1226
##NPOINTS=     7054
##FIRSTY=      0.69343
##MAXY=      0.93716
##MINY=      0.16317
##XYDATA= (X++(Y..Y))
599.7532 69343 69302 69227 69056 68778 68461 68227 68185 68365 68693 69024
605.0565 69210 69167 68899 68482 68028 67642 67388 67274 67248 67226 67130
610.3598 66928 66644 66326 66014 65711 65393 65034 64634 64206 63768 63337
615.6631 62942 62659 62605 62893 63539 64407 65255 65851 66075 65950 65610
620.9664 65229 64940 64776 64674 64532 64285 63945 63593 63329 63216 63236
626.2697 63307 63323 63209 62942 62543 62066 61572 61122 60768 60555 60502
631.5729 60598 60790 60983 61073 60987 60721 60347 59983 59736 59644 59662
636.8762 59696 59648 59467 59148 58722 58225 57688 57140 56617 56161 55807
642.1795 55574 55453 55421 55449 55519 55617 55715 55764 55697 55450 54993
647.4828 54353 53606 52850 52164 51579 51081 50629 50179 49697 49161 48567
652.7861 47931 47294 46704 46196 45763 45358 44909 44357 43677 42885 42017
658.0894 41103 40155 39166 38112 36961 35685 34273 32742 31133 29495 27865
663.3926 26276 24779 23435 22295 21361 20587 19925 19445 19687 22377 29443
668.6959 37921 43819 47855 51507 55332 59243 62803 65474 66913 67165 66608
673.9992 65732 64912 64304 63824 63207 62125 60342 57844 54860 51762 48903
679.3025 46491 44538 42882 41275 39501 37500 35444 33724 32826 33139 34778
684.6058 37492 40717 43781 46188 47789 48744 49321 49699 49890 49799 49351
689.9091 48583 47627 46614 45598 44551 43426 42217 40977 39763 38578 37359
695.2123 36017 34518 32917 31335 29895 28653 27575 26553 25467 24241 22872
700.5156 21427 20015 18755 17738 17007 16552 16335 16317 16498 16932 17715
705.8189 18961 20753 23113 25978 29198 32564 35855 38910 41685 44262 46804
711.1222 49464 52324 55372 58542 61766 65008 68249 71459 74567 77466 80039
716.4255 82191 83891 85178 86149 86908 87526 88011 88328 88447 88393 88251
721.7288 88122 88079 88141 88283 88444 88561 88590 88532 88432 88356 88353
727.0320 88420 88505 88533 88451 88263 88019 87791 87631 87551 87530 87529
732.3353 87518 87480 87423 87367 87337 87350 87401 87459 87478 87424 87300
737.6386 87152 87048 87044 87143 87298 87429 87472 87412 87291 87169 87089
742.9419 87054 87039 87030 87045 87133 87341 87670 88066 88435 88689 88775
748.2452 88695 88488 88217 87945 87730 87603 87557 87539 87468 87273 86931
753.5485 86487 86037 85686 85511 85522 85664 85841 85956 85950 85810 85572
758.8517 85298 85052 84872 84762 84694 84623 84509 84341 84146 83981 83901
764.1550 83918 83989 84036 83987 83809 83514 83140 82720 82273 81803 81321
769.4583 80842 80390 79977 79602 79250 78911 78583 78271 77982 77714 77451
774.7616 77173 76871 76555 76251 75987 75775 75601 75428 75222 74970 74685
780.0649 74394 74118 73855 73588 73308 73033 72797 72633 72539 72470 72358
785.3682 72146 71820 71413 70978 70562 70185 69847 69542 69268 69024 68799
790.6714 68558 68253 67845 67326 66731 66118 65537 64999 64471 63900 63243
795.9747 62494 61678 60830 59973 59102 58204 57268 56302 55327 54366 53441
801.2780 52572 51791 51137 50647 50345 50233 50298 50525 50901 51408 52018
806.5813 52674 53296 53788 54059 54049 53764 53303 52878 52783 53322 54692
811.8846 56892 59687 62671 65400 67529 68911 69609 69827 69815 69772 69817
817.1879 69986 70275 70664 71137 71672 72238 72791 73286 73690 73993 74207
822.4911 74354 74452 74508 74519 74486 74420 74346 74292 74274 74289 74318
827.7944 74336 74327 74290 74229 74153 74069 73984 73908 73854 73838 73868
833.0977 73945 74060 74195 74332 74450 74532 74570 74567 74538 74498 74461
838.4010 74427 74395 74362 74331 74306 74290 74276 74258 74233 74203 74176
843.7043 74150 74118 74062 73969 73844 73703 73572 73465 73380 73296 73184
849.0076 73019 72793 72517 72210 71899 71608 71356 71154 71001 70882 70771
854.3109 70636 70463 70264 70084 69985 70016 70187 70463 70778 71059 71253
859.6141 71342 71338 71267 71154 71016 70864 70703 70540 70381 70236 70111
864.9174 70009 69924 69841 69744 69616 69457 69281 69114 68981 68893 68842
870.2207 68800 68736 68626 68463 68257 68029 67800 67587 67398 67232 67082
875.5240 66941 66801 66661 66518 66370 66211 66036 65843 65639 65437 65253
880.8273 65093 64948 64800 64628 64417 64168 63892 63609 63335 63081 62850
886.1306 62642 62455 62291 62148 62023 61903 61769 61602 61388 61129 60838
891.4338 60530 60214 59888 59548 59194 58838 58502 58200 57939 57705 57479
896.7371 57241 56978 56683 56356 55995 55604 55192 54772 54357 53955 53568
902.0404 53190 52816 52444 52077 51719 51374 51037 50701 50349 49964 49536
907.3437 49069 48578 48089 47621 47184 46776 46388 46013 45651 45301 44955
912.6470 44603 44234 43851 43470 43115 42802 42529 42279 42029 41767 41496
917.9503 41233 40996 40796 40631 40492 40367 40250 40139 40036 39942 39856
923.2535 39772 39682 39585 39483 39384 39287 39187 39068 38922 38751 38576
928.5568 38425 38316 38250 38211 38178 38142 38115 38123 38196 38350 38585
933.8601 38893 39269 39719 40261 40912 41684 42570 43543 44556 45555 46476
939.1634 47265 47885 48328 48619 48811 48974 49177 49471 49880 50406 51029
944.4667 51723 52460 53218 53980 54733 55472 56196 56911 57629 58363 59121
949.7700 59902 60695 61483 62253 62995 63710 64402 65078 65743 66399 67050
955.0732 67695 68327 68939 69518 70059 70563 71041 71499 71941 72356 72731
960.3765 73057 73337 73591 73842 74105 74380 74650 74897 75107 75279 75424
965.6798 75554 75676 75787 75884 75967 76042 76121 76212 76317 76429 76538
970.9831 76632 76702 76745 76757 76742 76702 76644 76579 76524 76500 76525
976.2864 76612 76757 76947 77156 77358 77532 77665 77750 77787 77776 77721
981.5897 77636 77540 77456 77392 77341 77277 77172 77015 76823 76635 76493
986.8929 76423 76425 76475 76544 76609 76660 76693 76708 76693 76627 76478
992.1962 76220 75844 75367 74834 74298 73814 73427 73170 73054 73038 73008
997.4995 72786 72199 71195 69931 68775 68175 68455 69645 71451 73389 75006
1002.8028 76050 76530 76622 76541 76432 76344 76269 76183 76084 75975 75860
1008.1061 75733 75586 75422 75256 75107 74988 74898 74823 74745 74650 74529
1013.4094 74382 74210 74014 73791 73533 73233 72890 72519 72146 71803 71509
1018.7126 71267 71054 70834 70566 70214 69740 69111 68295 67265 65991 64438
1024.0160 62563 60349 57872 55375 53298 52197 52566 54621 58170 62639 67269
1029.3192 71366 74506 76591 77773 78312 78455 78374 78176 77931 77687 77473
1034.6226 77294 77135 76975 76803 76617 76426 76235 76044 75847 75642 75437
1039.9258 75246 75088 74973 74898 74846 74790 74710 74598 74465 74331 74214
1045.2291 74119 74040 73967 73893 73821 73757 73706 73664 73619 73561 73485
1050.5323 73395 73297 73198 73096 72986 72865 72739 72620 72519 72439 72372
1055.8357 72301 72215 72111 71994 71871 71742 71598 71426 71215 70965 70682
1061.1389 70378 70061 69735 69397 69040 68654 68226 67749 67223 66654 66057
1066.4423 65442 64815 64171 63503 62803 62071 61311 60527 59727 58923 58148
1071.7455 57473 57012 56914 57330 58368 60048 62277 64860 67549 70104 72347
1077.0488 74189 75618 76672 77410 77892 78174 78303 78326 78280 78195 78098
1082.3521 78002 77917 77840 77758 77660 77538 77394 77238 77078 76915 76743
1087.6554 76554 76347 76126 75898 75665 75431 75203 74990 74806 74652 74515
1092.9586 74369 74187 73952 73665 73337 72979 72594 72177 71711 71179 70570
1098.2620 69890 69174 68496 67957 67663 67689 68051 68700 69541 70458 71347
1103.5652 72134 72781 73276 73630 73867 74013 74094 74129 74130 74101 74047
1108.8685 73974 73891 73801 73704 73591 73449 73268 73040 72763 72443 72086
1114.1718 71703 71304 70898 70487 70065 69624 69154 68653 68124 67573 67005
1119.4751 66424 65829 65218 64585 63923 63217 62451 61608 60679 59666 58583
1124.7783 57460 56343 55298 54407 53763 53460 53572 54146 55184 56641 58424
1130.0817 60411 62464 64460 66305 67938 69333 70486 71414 72146 72722 73180
1135.3849 73554 73860 74104 74280 74384 74419 74397 74337 74257 74175 74099
1140.6882 74029 73959 73880 73786 73680 73568 73457 73352 73251 73152 73054
1145.9915 72962 72882 72819 72769 72726 72680 72628 72571 72511 72454 72399
1151.2948 72343 72278 72200 72108 72004 71893 71779 71661 71534 71394 71240
1156.5980 71077 70914 70758 70612 70471 70329 70177 70009 69823 69617 69391
1161.9014 69146 68881 68595 68290 67967 67627 67268 66885 66476 66044 65605
1167.2046 65192 64840 64578 64411 64310 64221 64083 63848 63498 63037 62487
1172.5079 61862 61169 60401 59549 58611 57592 56508 55387 54263 53187 52217
1177.8112 51416 50839 50524 50481 50690 51095 51617 52163 52640 52976 53132
1183.1145 53101 52912 52619 52297 52034 51927 52077 52571 53468 54778 56460
1188.4177 58420 60535 62669 64700 66539 68133 69467 70551 71407 72062 72544
1193.7211 72885 73123 73290 73411 73495 73539 73534 73474 73364 73220 73059
1199.0243 72898 72744 72592 72434 72260 72070 71871 71673 71484 71303 71123
1204.3276 70932 70726 70507 70283 70060 69840 69620 69396 69168 68940 68722
1209.6309 68518 68326 68138 67951 67767 67600 67472 67403 67404 67467 67572
1214.9342 67690 67791 67859 67888 67884 67860 67826 67787 67742 67685 67611
1220.2374 67515 67401 67273 67140 67008 66879 66749 66615 66475 66329 66184
1225.5408 66044 65911 65782 65650 65506 65345 65162 64957 64732 64493 64247
1230.8440 64002 63766 63541 63328 63119 62906 62680 62436 62174 61898 61615
1236.1473 61330 61046 60763 60480 60196 59908 59614 59314 59010 58705 58404
1241.4506 58112 57831 57557 57287 57015 56741 56464 56188 55914 55640 55368
1246.7539 55095 54822 54546 54265 53972 53664 53341 53012 52683 52362 52048
1252.0571 51736 51418 51094 50769 50456 50165 49899 49652 49412 49166 48906
1257.3605 48630 48339 48038 47726 47405 47073 46725 46354 45952 45513 45035
1262.6637 44519 43969 43391 42793 42191 41598 41026 40472 39919 39337 38699
1267.9670 37999 37255 36506 35788 35128 34535 34008 33542 33131 32770 32458
1273.2703 32199 32001 31870 31810 31812 31857 31922 31987 32033 32049 32024
1278.5736 31946 31804 31588 31297 30939 30529 30087 29632 29175 28724 28282
1283.8768 27851 27436 27042 26676 26344 26055 25817 25642 25537 25508 25560
1289.1802 25698 25927 26260 26704 27265 27940 28722 29606 30588 31664 32830
1294.4834 34078 35399 36781 38208 39661 41119 42560 43968 45332 46641 47889
1299.7867 49071 50187 51245 52260 53250 54230 55215 56221 57265 58366 59538
1305.0900 60787 62099 63447 64789 66079 67262 68290 69117 69717 70077 70201
1310.3933 70103 69793 69283 68581 67703 66683 65567 64405 63231 62052 60858
1315.6965 59623 58325 56943 55457 53840 52065 50124 48053 45939 43904 42060
1320.9999 40493 39252 38362 37833 37662 37831 38312 39073 40085 41324 42766
1326.3031 44388 46166 48080 50122 52291 54585 56994 59488 62016 64517 66932
1331.6064 69222 71363 73342 75140 76743 78147 79365 80427 81366 82209 82964
1336.9097 83631 84206 84691 85099 85450 85761 86045 86307 86543 86747 86919
1342.2130 87059 87168 87251 87308 87343 87357 87351 87331 87301 87264 87219
1347.5162 87161 87083 86979 86854 86719 86591 86489 86424 86404 86426 86483
1352.8196 86565 86664 86776 86900 87032 87162 87273 87351 87390 87392 87370
1358.1228 87337 87301 87260 87202 87118 87005 86866 86711 86549 86391 86249
1363.4261 86136 86054 85996 85945 85887 85807 85697 85552 85376 85177 84968
1368.7294 84761 84566 84387 84218 84050 83876 83690 83488 83267 83025 82767
1374.0327 82511 82279 82084 81918 81759 81588 81393 81174 80936 80692 80447
1379.3359 80202 79955 79702 79448 79200 78967 78747 78534 78317 78085 77837
1384.6393 77578 77313 77041 76759 76462 76158 75868 75605 75363 75120 74856
1389.9425 74559 74234 73893 73553 73220 72884 72528 72128 71668 71149 70599
1395.2458 70064 69570 69112 68671 68228 67767 67276 66766 66274 65838 65467
1400.5491 65137 64818 64489 64143 63785 63426 63071 62713 62338 61929 61485
1405.8524 61017 60527 60007 59445 58836 58186 57512 56832 56153 55474 54794
1411.1556 54115 53443 52778 52119 51467 50824 50198 49595 49015 48461 47939
1416.4590 47461 47040 46689 46426 46292 46324 46483 46652 46747 46776 46780
1421.7622 46808 46917 47172 47623 48250 48942 49582 50137 50653 51191 51792
1427.0656 52463 53191 53985 54902 56048 57494 59169 60874 62444 63874 65281
1432.3688 66781 68389 69988 71411 72569 73502 74353 75335 76614 78045 79213
1437.6721 79947 80388 80699 80960 81185 81357 81449 81446 81346 81158 80888
1442.9753 80529 80066 79485 78785 77991 77128 76202 75166 73912 72309 70326
1448.2787 68109 65868 63667 61408 58931 56135 53116 50254 48116 47161 47505
1453.5819 48990 51363 54416 58022 62125 66678 71448 75816 79059 81067 82273
1458.8853 83072 83655 84103 84456 84745 84996 85227 85449 85667 85887 86129
1464.1885 86420 86772 87152 87504 87806 88071 88321 88562 88788 88981 89128
1469.4918 89227 89283 89300 89268 89159 88952 88689 88491 88423 88433 88458
1474.7950 88458 88412 88317 88192 88075 87992 87942 87905 87860 87792 87686
1480.0984 87537 87350 87147 86956 86797 86672 86569 86466 86346 86200 86027
1485.4016 85827 85589 85304 84975 84633 84317 84035 83755 83411 82961 82444
1490.7050 81955 81513 81044 80466 79742 78882 77932 76946 75969 75060 74327
1496.0082 73929 73972 74429 75240 76392 77849 79427 80827 81839 82467 82844
1501.3115 83107 83328 83518 83652 83718 83728 83701 83650 83564 83390 83045
1506.6147 82573 82221 82062 82007 81997 82009 82026 82030 82004 81942 81850
1511.9181 81750 81665 81601 81546 81476 81374 81231 81032 80758 80390 79966
1517.2213 79593 79334 79159 79017 78866 78678 78426 78102 77767 77548 77458
1522.5247 77398 77320 77223 77122 77035 76974 76945 76939 76943 76949 76953
1527.8279 76956 76957 76954 76945 76929 76904 76868 76820 76756 76680 76601
1533.1312 76539 76510 76503 76489 76454 76395 76315 76217 76105 75979 75837
1538.4344 75680 75525 75412 75348 75278 75167 75027 74887 74768 74675 74602
1543.7378 74539 74485 74441 74401 74350 74274 74171 74043 73898 73742 73583
1549.0410 73439 73325 73247 73181 73099 72987 72848 72692 72533 72392 72296
1554.3444 72244 72196 72111 71978 71797 71568 71278 70915 70518 70359 70635
1559.6476 70880 70927 70869 70762 70626 70463 70274 70058 69817 69560 69305
1564.9509 69065 68842 68623 68396 68153 67894 67621 67339 67067 66830 66642
1570.2542 66475 66298 66090 65839 65532 65164 64744 64292 63827 63349 62831
1575.5575 62238 61581 60966 60460 60013 59564 59084 58567 58025 57478 56946
1580.8607 56446 55998 55631 55384 55311 55469 55922 56732 57956 59611 61658
1586.1641 63984 66417 68763 70847 72541 73785 74579 74971 75030 74830 74440
1591.4674 73913 73290 72592 71833 71016 70144 69226 68273 67292 66282 65240
1596.7706 64168 63089 62043 61075 60228 59536 59022 58700 58572 58631 58867
1602.0740 59276 59849 60563 61367 62200 63026 63844 64686 65580 66525 67480
1607.3772 68387 69209 69943 70602 71189 71687 72071 72335 72498 72580 72588
1612.6805 72515 72352 72108 71807 71470 71087 70598 69912 69059 68314 67907
1617.9838 67811 67924 68186 68558 68979 69368 69648 69788 69807 69762 69728
1623.2871 69761 69843 69906 69914 69869 69790 69691 69582 69472 69360 69242
1628.5903 69106 68947 68767 68566 68343 68091 67807 67494 67158 66806 66437
1633.8937 66043 65623 65213 64908 64761 64674 64530 64299 63999 63654 63283
1639.1969 62900 62510 62116 61723 61331 60933 60521 60088 59636 59173 58704
1644.5002 58228 57741 57241 56750 56324 55987 55680 55317 54868 54354 53804
1649.8035 53232 52637 52009 51333 50601 49870 49442 49736 50051 49846 49393
1655.1068 48874 48338 47786 47221 46648 46083 45538 45012 44494 43969 43435
1660.4100 42901 42378 41872 41376 40879 40374 39866 39353 38818 38236 37594
1665.7134 36902 36195 35507 34855 34230 33610 32987 32403 31911 31496 31093
1671.0166 30641 30131 29598 29085 28616 28195 27831 27555 27419 27413 27412
1676.3199 27310 27109 26857 26600 26382 26251 26255 26407 26653 26893 27044
1681.6232 27075 26998 26865 26876 27640 29956 32687 34087 34568 34828 35159
1686.9265 35667 36396 37363 38549 39890 41292 42671 43979 45208 46366 47454
1692.2297 48461 49361 50131 50772 51338 51988 53046 54805 56869 58360 59093
1697.5331 59394 59528 59639 59874 60560 62152 64096 65134 65416 65486 65586
1702.8363 65802 66166 66682 67317 68030 68820 69729 70760 71814 72757 73529
1708.1396 74160 74728 75312 75956 76646 77321 77916 78404 78798 79128 79431
1713.4429 79759 80170 80688 81256 81769 82165 82467 82771 83219 83896 84647
1718.7462 85255 85705 86085 86463 86862 87284 87721 88172 88643 89138 89642
1724.0494 90121 90546 90906 91217 91504 91785 92066 92334 92575 92775 92931
1729.3528 93048 93147 93247 93356 93466 93560 93610 93575 93394 93072 92824
1734.6560 92831 92989 93170 93329 93462 93573 93662 93716 93711 93618 93443
1739.9594 93258 93139 93099 93101 93095 93040 92908 92707 92484 92291 92141
1745.2626 92020 91905 91779 91633 91466 91292 91138 91027 90964 90938 90935
1750.5659 90938 90942 90952 90977 91021 91077 91141 91203 91259 91303 91334
1755.8691 91353 91365 91373 91375 91369 91351 91323 91287 91242 91185 91109
1761.1725 91010 90902 90806 90735 90677 90615 90535 90438 90334 90236 90150
1766.4757 90074 89995 89902 89801 89710 89643 89595 89545 89467 89331 89115
1771.7791 88850 88646 88585 88627 88695 88740 88743 88697 88613 88513 88419
1777.0823 88336 88259 88172 88066 87939 87801 87672 87567 87489 87426 87361
1782.3856 87283 87188 87078 86961 86848 86749 86663 86582 86499 86417 86344
1787.6888 86291 86261 86250 86243 86224 86188 86136 86092 86087 86148 86261
1792.9922 86373 86446 86476 86481 86483 86500 86540 86594 86645 86682 86707
1798.2954 86730 86762 86808 86865 86925 86993 87079 87189 87315 87435 87523
1803.5988 87572 87593 87604 87623 87655 87694 87726 87739 87727 87695 87655
1808.9020 87619 87599 87601 87629 87674 87721 87756 87770 87769 87760 87751
1814.2053 87751 87761 87778 87794 87800 87788 87756 87705 87646 87588 87537
1819.5085 87494 87458 87426 87395 87361 87318 87258 87177 87083 86998 86960
1824.8119 87011 87154 87338 87490 87576 87600 87584 87560 87565 87637 87782
1830.1151 87949 88079 88153 88185 88197 88207 88223 88245 88262 88265 88249
1835.4185 88223 88207 88222 88281 88377 88481 88564 88606 88607 88575 88526
1840.7217 88471 88418 88370 88331 88306 88302 88324 88358 88381 88380 88365
1846.0250 88357 88372 88418 88490 88571 88634 88662 88654 88620 88569 88514
1851.3282 88467 88434 88418 88414 88406 88382 88336 88273 88212 88170 88158
1856.6316 88171 88196 88215 88217 88203 88180 88160 88144 88127 88099 88053
1861.9348 87986 87910 87839 87789 87768 87771 87783 87783 87754 87690 87605
1867.2382 87530 87502 87543 87633 87706 87700 87604 87455 87307 87206 87173
1872.5414 87204 87265 87311 87303 87232 87114 86983 86874 86810 86792 86809
1877.8447 86844 86883 86917 86944 86961 86963 86943 86893 86818 86730 86649
1883.1479 86597 86587 86618 86673 86729 86759 86748 86696 86621 86548 86505
1888.4513 86509 86557 86615 86638 86601 86520 86428 86354 86311 86296 86298
1893.7545 86308 86324 86351 86388 86422 86437 86420 86368 86290 86202 86121
1899.0579 86067 86054 86083 86139 86192 86207 86170 86094 86017 85976 85980
1904.3611 86000 85983 85881 85682 85418 85147 84933 84818 84811 84886 84996
1909.6644 85083 85100 85024 84865 84657 84444 84266 84149 84099 84099 84123
1914.9677 84147 84164 84186 84240 84349 84512 84687 84813 84857 84842 84810
1920.2710 84799 84819 84860 84902 84933 84960 85004 85077 85171 85269 85359
1925.5742 85443 85527 85612 85686 85727 85726 85692 85654 85646 85678 85730
1930.8776 85765 85748 85675 85576 85502 85498 85580 85725 85888 86020 86089
1936.1808 86086 86031 85964 85931 85966 86078 86243 86413 86537 86588 86565
1941.4841 86498 86442 86452 86554 86729 86939 87146 87314 87411 87416 87334
1946.7874 87204 87070 86951 86832 86682 86491 86300 86191 86245 86482 86844
1952.0907 87210 87475 87605 87653 87704 87811 87943 88018 87964 87781 87547
1957.3939 87362 87282 87291 87323 87319 87274 87225 87220 87272 87356 87443
1962.6973 87524 87615 87723 87819 87838 87712 87421 87020 86632 86391 86359
