##TITLE= STDACIDOSALICILICO
##JCAMP-DX= 4.24
##DATA TYPE= INFRARED SPECTRUM
##ORIGIN= JASCO
##OWNER= 
##DATE= 22/03/30
##TIME= 18:39:04
##SPECTROMETER/DATA SYSTEM= 
##RESOLUTION= 
##DELTAX=   0.48211674
##XUNITS= 1/CM
##YUNITS= TRANSMITTANCE
##XFACTOR= 1.00000
##YFACTOR= 1E-005
##FIRSTX=   599.7532
##LASTX=  4000.1226
##NPOINTS=     7054
##FIRSTY=      0.63105
##MAXY=      0.94999
##MINY=      0.45748
##XYDATA= (X++(Y..Y))
599.7532 63105 63447 63886 64348 64773 65136 65452 65754 66061 66370 66646
605.0565 66847 66946 66947 66894 66847 66861 66962 67138 67343 67525 67642
610.3598 67681 67650 67578 67496 67442 67444 67517 67647 67791 67894 67913
615.6631 67844 67723 67610 67547 67530 67512 67435 67277 67061 66842 66678
620.9664 66600 66592 66600 66553 66403 66147 65827 65511 65259 65091 64981
626.2697 64876 64730 64537 64326 64146 64033 63989 63983 63965 63895 63764
631.5729 63595 63428 63284 63146 62960 62663 62228 61687 61124 60630 60258
636.8762 59999 59795 59579 59305 58956 58537 58068 57581 57117 56717 56413
642.1795 56208 56074 55964 55839 55680 55486 55259 54993 54676 54309 53921
647.4828 53566 53301 53146 53063 52961 52745 52355 51798 51135 50455 49837
652.7861 49322 48909 48558 48221 47859 47460 47038 46626 46260 45973 45792
658.0894 45748 45880 46228 46824 47684 48800 50141 51650 53242 54817 56277
663.3926 57539 58555 59317 59866 60281 60656 61103 61782 62935 64728 66452
668.6959 66797 66166 65481 64980 64592 64202 63722 63122 62440 61758 61164
673.9992 60709 60396 60189 60026 59850 59623 59337 59010 58669 58334 58003
679.3025 57653 57246 56748 56147 55467 54766 54121 53603 53239 53000 52805
684.6058 52563 52219 51790 51350 50985 50745 50612 50512 50363 50125 49828
689.9091 49549 49373 49347 49466 49674 49893 50062 50169 50253 50392 50666
695.2123 51120 51739 52446 53134 53709 54133 54439 54721 55102 55690 56544
700.5156 57654 58936 60253 61453 62425 63152 63728 64336 65177 66378 67928
705.8189 69679 71399 72878 74015 74841 75485 76092 76748 77446 78109 78643
711.1222 79002 79218 79372 79549 79787 80065 80328 80523 80625 80640 80585
716.4255 80483 80355 80223 80116 80056 80047 80073 80104 80112 80087 80039
721.7288 79981 79912 79816 79676 79488 79265 79036 78824 78638 78470 78301
727.0320 78123 77939 77759 77589 77418 77222 76982 76704 76426 76200 76060
732.3353 76002 75976 75913 75762 75514 75200 74875 74593 74387 74273 74246
737.6386 74290 74376 74468 74533 74548 74502 74399 74254 74094 73951 73852
742.9419 73799 73764 73691 73522 73231 72829 72351 71817 71215 70497 69610
748.2452 68511 67183 65629 63864 61926 59875 57790 55759 53867 52180 50736
753.5485 49548 48612 47923 47484 47320 47476 48013 48997 50481 52470 54887
758.8517 57571 60346 63111 65868 68687 71635 74728 77892 80972 83782 86179
764.1550 88101 89558 90607 91320 91762 91973 91958 91695 91158 90348 89307
769.4583 88130 86936 85837 84897 84112 83414 82714 81933 81043 80070 79072
774.7616 78112 77231 76442 75733 75079 74451 73822 73170 72481 71755 70997
780.0649 70218 69426 68623 67810 67001 66234 65574 65100 64884 64968 65352
785.3682 66010 66902 67988 69231 70582 71970 73311 74531 75597 76521 77347
790.6714 78118 78845 79504 80053 80459 80719 80860 80929 80966 80992 81002
795.9747 80973 80875 80689 80422 80102 79765 79441 79135 78829 78502 78142
801.2780 77758 77366 76979 76603 76253 75974 75849 75975 76417 77166 78129
806.5813 79160 80105 80863 81402 81752 81970 82109 82193 82231 82226 82196
811.8846 82164 82151 82155 82149 82089 81941 81699 81392 81070 80783 80560
817.1879 80406 80307 80239 80180 80109 80011 79877 79707 79505 79283 79052
822.4911 78821 78602 78403 78230 78081 77945 77806 77647 77466 77270 77076
827.7944 76899 76745 76608 76478 76347 76207 76051 75866 75637 75351 75012
833.0977 74645 74287 73964 73679 73401 73081 72673 72169 71597 71017 70494
838.4010 70071 69767 69580 69501 69521 69634 69824 70070 70340 70599 70820
843.7043 70987 71087 71112 71053 70902 70657 70324 69911 69426 68867 68227
849.0076 67495 66672 65782 64880 64060 63442 63158 63315 63955 65032 66408
854.3109 67884 69251 70345 71080 71457 71540 71421 71192 70918 70634 70345
859.6141 70036 69685 69272 68793 68255 67678 67087 66501 65934 65387 64855
864.9174 64333 63822 63343 62947 62713 62722 63030 63629 64432 65283 66004
870.2207 66448 66552 66346 65938 65468 65052 64756 64582 64487 64415 64314
875.5240 64155 63933 63660 63355 63036 62716 62397 62075 61751 61430 61122
880.8273 60837 60578 60341 60119 59910 59718 59552 59416 59311 59232 59177
886.1306 59147 59153 59203 59296 59423 59565 59707 59836 59948 60045 60131
891.4338 60215 60310 60432 60593 60798 61036 61296 61568 61851 62150 62472
896.7371 62812 63159 63495 63808 64096 64368 64638 64917 65211 65519 65833
902.0404 66136 66413 66652 66852 67027 67192 67357 67518 67660 67764 67824
907.3437 67841 67828 67798 67756 67708 67657 67607 67558 67507 67443 67358
912.6470 67258 67167 67114 67131 67232 67413 67661 67963 68319 68738 69226
917.9503 69780 70379 70990 71579 72125 72625 73085 73517 73925 74300 74630
923.2535 74900 75103 75245 75342 75416 75488 75575 75687 75823 75971 76119
928.5568 76253 76364 76453 76526 76597 76682 76791 76932 77101 77287 77477
933.8601 77660 77828 77979 78116 78241 78354 78455 78544 78623 78698 78779
939.1634 78869 78972 79083 79192 79288 79358 79397 79405 79389 79364 79347
944.4667 79348 79371 79407 79446 79475 79490 79491 79482 79466 79439 79399
949.7700 79346 79284 79221 79161 79104 79046 78982 78913 78846 78792 78757
955.0732 78737 78719 78683 78615 78512 78384 78243 78097 77939 77747 77490
960.3765 77138 76665 76052 75292 74408 73464 72573 71884 71533 71591 72028
965.6798 72715 73478 74158 74671 75020 75263 75471 75683 75905 76123 76323
970.9831 76503 76677 76857 77053 77266 77495 77731 77964 78176 78350 78477
976.2864 78559 78609 78643 78670 78690 78692 78669 78621 78562 78509 78475
981.5897 78462 78463 78460 78439 78390 78313 78214 78102 77990 77888 77803
986.8929 77737 77684 77626 77549 77442 77308 77159 77006 76845 76658 76419
992.1962 76119 75779 75453 75209 75095 75120 75251 75426 75585 75690 75727
997.4995 75706 75640 75541 75419 75284 75149 75034 74950 74901 74876 74861
1002.8028 74844 74816 74775 74714 74625 74494 74312 74078 73806 73518 73237
1008.1061 72975 72731 72498 72263 72025 71795 71593 71440 71350 71332 71387
1013.4094 71515 71712 71969 72271 72593 72909 73196 73443 73652 73829 73976
1018.7126 74091 74163 74179 74135 74032 73880 73688 73465 73215 72936 72627
1024.0160 72288 71919 71518 71082 70605 70081 69500 68850 68121 67315 66472
1029.3192 65683 65093 64874 65171 66047 67448 69205 71080 72835 74290 75364
1034.6226 76062 76453 76627 76662 76618 76536 76445 76372 76340 76359 76426
1039.9258 76524 76632 76734 76823 76904 76985 77073 77168 77264 77353 77429
1045.2291 77487 77528 77558 77583 77609 77636 77657 77662 77646 77604 77541
1050.5323 77460 77367 77263 77151 77035 76926 76833 76762 76714 76679 76642
1055.8357 76591 76518 76428 76331 76240 76163 76101 76050 76005 75961 75919
1061.1389 75879 75843 75809 75773 75725 75658 75565 75449 75322 75201 75104
1066.4423 75035 74993 74970 74959 74957 74966 74982 74992 74982 74936 74853
1071.7455 74740 74616 74499 74402 74327 74262 74191 74096 73965 73804 73624
1077.0488 73444 73272 73108 72941 72758 72552 72328 72094 71858 71621 71380
1082.3521 71132 70874 70611 70350 70097 69853 69607 69344 69038 68670 68231
1087.6554 67734 67226 66784 66504 66479 66758 67325 68091 68915 69651 70193
1092.9586 70507 70626 70623 70577 70548 70571 70662 70826 71060 71348 71658
1098.2620 71951 72187 72341 72409 72406 72359 72296 72240 72204 72189 72186
1103.5652 72180 72161 72122 72070 72013 71959 71910 71858 71799 71729 71650
1108.8685 71567 71481 71392 71297 71196 71095 71000 70918 70849 70786 70722
1114.1718 70649 70564 70464 70348 70217 70072 69918 69760 69602 69444 69286
1119.4751 69129 68975 68828 68689 68555 68414 68253 68068 67863 67652 67454
1124.7783 67275 67112 66952 66779 66588 66382 66175 65976 65788 65600 65398
1130.0817 65168 64905 64609 64281 63925 63545 63153 62775 62447 62213 62110
1135.3849 62150 62319 62573 62852 63098 63263 63323 63272 63120 62886 62593
1140.6882 62264 61915 61557 61192 60816 60429 60045 59698 59441 59326 59385
1145.9915 59604 59921 60235 60436 60442 60226 59822 59322 58836 58467 58271
1151.2948 58247 58342 58468 58539 58498 58337 58106 57898 57828 58002 58495
1156.5980 59332 60485 61878 63402 64926 66320 67474 68313 68812 68992 68912
1161.9014 68647 68267 67823 67347 66852 66345 65830 65319 64822 64351 63911
1167.2046 63502 63113 62731 62341 61938 61523 61107 60705 60328 59979 59652
1172.5079 59333 59007 58662 58295 57911 57520 57136 56770 56428 56108 55805
1177.8112 55512 55222 54934 54651 54380 54124 53879 53639 53400 53163 52942
1183.1145 52756 52622 52555 52557 52623 52748 52924 53148 53420 53743 54118
1188.4177 54548 55027 55541 56071 56590 57075 57511 57893 58227 58524 58799
1193.7211 59061 59313 59547 59753 59917 60034 60105 60141 60154 60154 60144
1199.0243 60113 60048 59934 59763 59534 59254 58936 58590 58221 57833 57425
1204.3276 57000 56567 56136 55723 55344 55018 54764 54606 54571 54687 54975
1209.6309 55448 56106 56940 57929 59044 60244 61481 62695 63827 64826 65654
1214.9342 66293 66747 67034 67185 67231 67203 67120 66994 66830 66635 66419
1220.2374 66198 65995 65829 65711 65644 65622 65640 65697 65794 65929 66091
1225.5408 66266 66435 66587 66717 66826 66915 66984 67025 67032 67000 66933
1230.8440 66843 66742 66642 66549 66464 66385 66311 66247 66196 66163 66149
1236.1473 66151 66164 66186 66211 66235 66245 66228 66175 66079 65950 65804
1241.4506 65668 65569 65528 65557 65651 65794 65960 66131 66297 66463 66647
1246.7539 66865 67132 67448 67809 68204 68626 69071 69539 70036 70563 71123
1252.0571 71715 72338 72994 73686 74426 75229 76113 77091 78168 79330 80547
1257.3605 81771 82949 84034 84993 85810 86481 87001 87368 87577 87636 87564
1262.6637 87384 87120 86792 86423 86056 85749 85554 85480 85459 85349 84989
1267.9670 84310 83400 82457 81677 81168 80943 80941 81059 81190 81259 81232
1273.2703 81110 80897 80588 80173 79642 79001 78267 77463 76612 75727 74816
1278.5736 73878 72916 71932 70935 69936 68943 67961 66993 66045 65123 64236
1283.8768 63393 62598 61856 61167 60531 59945 59410 58924 58488 58101 57764
1289.1802 57481 57259 57101 57010 56979 56994 57040 57107 57193 57306 57459
1294.4834 57663 57926 58250 58636 59081 59583 60137 60735 61369 62024 62677
1299.7867 63303 63876 64380 64815 65191 65529 65851 66180 66536 66938 67400
1305.0900 67937 68554 69257 70046 70920 71874 72895 73961 75042 76107 77132
1310.3933 78105 79022 79884 80693 81440 82110 82684 83150 83505 83758 83922
1315.6965 84006 84016 83950 83803 83568 83237 82815 82313 81757 81175 80595
1320.9999 80037 79522 79070 78706 78454 78334 78352 78505 78783 79170 79652
1326.3031 80210 80825 81481 82159 82844 83517 84159 84748 85268 85712 86083
1331.6064 86394 86661 86896 87102 87279 87425 87539 87623 87679 87711 87722
1336.9097 87717 87705 87692 87683 87682 87683 87680 87664 87636 87600 87559
1342.2130 87515 87465 87407 87341 87271 87201 87135 87068 86997 86915 86824
1347.5162 86727 86628 86529 86425 86310 86182 86042 85897 85751 85612 85479
1352.8196 85353 85229 85105 84978 84846 84708 84559 84394 84208 84005 83791
1358.1228 83577 83366 83155 82934 82695 82437 82168 81896 81628 81370 81126
1363.4261 80907 80717 80553 80409 80274 80140 80003 79857 79702 79537 79365
1368.7294 79189 79013 78839 78664 78485 78302 78118 77932 77744 77549 77351
1374.0327 77162 77005 76892 76819 76764 76711 76649 76574 76492 76408 76328
1379.3359 76253 76183 76120 76071 76043 76041 76068 76120 76195 76286 76389
1384.6393 76500 76623 76772 76970 77240 77584 77951 78277 78527 78712 78858
1389.9425 78984 79097 79192 79257 79285 79275 79230 79155 79055 78936 78806
1395.2458 78667 78519 78361 78195 78023 77845 77654 77439 77195 76930 76655
1400.5491 76377 76094 75804 75510 75223 74955 74716 74514 74352 74226 74130
1405.8524 74054 73994 73949 73921 73908 73905 73900 73885 73856 73814 73764
1411.1556 73704 73625 73512 73353 73145 72895 72617 72320 72010 71689 71362
1416.4590 71038 70728 70444 70198 70013 69924 69936 69994 70039 70052 70041
1421.7622 70020 69997 69976 69953 69914 69841 69726 69567 69365 69123 68850
1427.0656 68563 68280 68012 67756 67497 67215 66907 66595 66300 66030 65775
1432.3688 65520 65255 64985 64721 64474 64240 64009 63762 63494 63239 63041
1437.6721 62901 62794 62702 62622 62561 62525 62525 62563 62639 62752 62899
1442.9753 63086 63318 63597 63918 64263 64617 64986 65406 65943 66655 67517
1448.2787 68395 69146 69733 70205 70632 71056 71474 71845 72110 72236 72230
1453.5819 72124 71947 71722 71469 71218 71019 70941 71015 71165 71269 71288
1458.8853 71252 71206 71181 71202 71283 71422 71603 71801 72000 72204 72447
1464.1885 72772 73190 73629 74009 74319 74612 74945 75351 75826 76329 76805
1469.4918 77219 77565 77868 78158 78453 78720 78837 78713 78423 78082 77724
1474.7950 77313 76793 76124 75337 74539 73815 73168 72547 71898 71197 70449
1480.0984 69693 68998 68455 68155 68182 68602 69452 70714 72303 74087 75943
1485.4016 77816 79721 81683 83631 85377 86745 87712 88404 88992 89594 90182
1490.7050 90632 90901 91041 91121 91176 91217 91247 91268 91285 91302 91312
1496.0082 91305 91275 91234 91201 91185 91181 91178 91167 91148 91123 91102
1501.3115 91086 91078 91078 91083 91089 91093 91092 91077 91034 90938 90783
1506.6147 90653 90638 90681 90710 90709 90691 90671 90661 90662 90669 90673
1511.9181 90666 90642 90604 90560 90517 90481 90455 90434 90401 90319 90160
1517.2213 89958 89781 89656 89569 89502 89436 89351 89208 88968 88667 88404
1522.5247 88208 88049 87895 87723 87512 87259 86993 86771 86643 86628 86719
1527.8279 86888 87091 87279 87422 87513 87560 87580 87587 87590 87590 87572
1533.1312 87507 87381 87220 87065 86931 86815 86709 86610 86515 86422 86318
1538.4344 86172 85938 85624 85356 85197 85064 84876 84619 84332 84076 83886
1543.7378 83770 83719 83713 83723 83720 83690 83638 83574 83507 83439 83366
1549.0410 83273 83139 82952 82734 82520 82330 82162 82006 81845 81656 81423
1554.3444 81167 80936 80750 80596 80452 80303 80141 79980 79877 79897 79863
1559.6476 79641 79375 79148 78970 78828 78707 78594 78479 78355 78218 78069
1564.9509 77914 77759 77603 77444 77282 77116 76953 76799 76664 76548 76425
1570.2542 76271 76085 75878 75657 75428 75198 74978 74776 74595 74439 74321
1575.5575 74268 74298 74367 74407 74412 74410 74430 74492 74607 74781 75014
1580.8607 75298 75622 75968 76309 76615 76859 77028 77123 77159 77150 77110
1586.1641 77047 76959 76845 76701 76529 76332 76118 75892 75655 75404 75136
1591.4674 74851 74547 74224 73876 73496 73081 72635 72175 71721 71285 70866
1596.7706 70451 70020 69558 69053 68497 67888 67227 66521 65782 65022 64247
1602.0740 63460 62673 61920 61252 60733 60420 60361 60593 61125 61918 62873
1607.3772 63863 64789 65606 66311 66920 67439 67869 68221 68523 68819 69157
1612.6805 69566 70038 70532 71001 71431 71866 72430 73313 74550 75768 76591
1617.9838 77045 77311 77513 77699 77874 78022 78133 78213 78280 78358 78455
1623.2871 78545 78577 78535 78442 78321 78187 78041 77884 77720 77550 77377
1628.5903 77199 77013 76817 76606 76375 76122 75852 75578 75316 75076 74858
1633.8937 74654 74446 74210 73933 73652 73411 73214 73045 72893 72752 72613
1639.1969 72467 72306 72129 71941 71755 71580 71420 71270 71123 70970 70808
1644.5002 70632 70441 70237 70039 69872 69741 69605 69423 69192 68934 68669
1649.8035 68405 68140 67864 67562 67222 66868 66697 67051 67516 67644 67583
1655.1068 67468 67349 67244 67161 67107 67087 67099 67127 67153 67158 67134
1660.4100 67088 67046 67050 67148 67356 67614 67819 67924 67950 67937 67906
1665.7134 67858 67784 67682 67570 67496 67533 67745 68100 68459 68716 68893
1671.0166 69050 69202 69314 69350 69309 69236 69220 69393 69869 70552 71123
1676.3199 71421 71530 71580 71655 71810 72094 72544 73153 73828 74437 74892
1681.6232 75185 75359 75504 75838 76881 79093 81241 82100 82244 82250 82308
1686.9265 82465 82730 83095 83535 84002 84442 84820 85131 85392 85620 85824
1692.2297 86006 86160 86279 86367 86447 86584 86911 87547 88320 88861 89088
1697.5331 89135 89108 89061 89048 89218 89836 90759 91361 91596 91694 91778
1702.8363 91898 92075 92309 92581 92858 93116 93350 93564 93753 93907 94026
1708.1396 94120 94203 94283 94360 94425 94469 94494 94511 94531 94558 94591
1713.4429 94627 94664 94698 94732 94770 94812 94862 94911 94940 94920 94856
1718.7462 94793 94761 94757 94773 94800 94829 94854 94871 94879 94884 94893
1724.0494 94913 94940 94968 94990 94999 94996 94985 94973 94966 94963 94960
1729.3528 94945 94910 94855 94786 94712 94633 94542 94427 94285 94151 94096
1734.6560 94111 94124 94097 94027 93921 93789 93646 93504 93368 93231 93076
1739.9594 92897 92709 92525 92345 92151 91923 91647 91334 91019 90731 90470
1745.2626 90218 89959 89689 89410 89136 88878 88646 88443 88265 88113 87994
1750.5659 87921 87905 87937 87992 88050 88105 88160 88225 88309 88428 88605
1755.8691 88863 89196 89559 89880 90112 90261 90361 90445 90536 90653 90816
1761.1725 91033 91278 91492 91630 91700 91734 91761 91795 91835 91875 91908
1766.4757 91943 91998 92091 92219 92349 92448 92508 92550 92604 92709 92902
1771.7791 93187 93480 93684 93792 93858 93921 93998 94092 94192 94286 94362
1777.0823 94420 94465 94504 94543 94588 94640 94701 94765 94824 94870 94900
1782.3856 94918 94928 94935 94938 94933 94915 94881 94835 94787 94743 94709
1787.6888 94687 94674 94669 94668 94670 94676 94683 94686 94670 94628 94570
1792.9922 94520 94492 94483 94481 94476 94462 94442 94421 94408 94404 94405
1798.2954 94403 94392 94365 94322 94268 94211 94160 94120 94091 94073 94060
1803.5988 94047 94035 94026 94024 94028 94035 94036 94030 94018 94010 94013
1808.9020 94029 94050 94066 94063 94038 93999 93958 93925 93904 93897 93904
1814.2053 93925 93961 94008 94057 94094 94106 94084 94034 93971 93917 93887
1819.5085 93886 93908 93936 93953 93946 93913 93864 93812 93770 93746 93741
1824.8119 93745 93747 93733 93703 93665 93630 93607 93600 93607 93607 93567
1830.1151 93474 93354 93245 93170 93139 93151 93198 93264 93328 93370 93382
1835.4185 93363 93321 93268 93224 93205 93219 93261 93315 93364 93394 93403
1840.7217 93398 93390 93390 93401 93419 93442 93468 93502 93542 93580 93606
1846.0250 93611 93595 93560 93520 93488 93473 93468 93460 93437 93397 93349
1851.3282 93308 93283 93272 93261 93234 93183 93118 93058 93020 93008 93012
1856.6316 93021 93033 93054 93095 93153 93208 93230 93195 93098 92963 92826
1861.9348 92727 92688 92712 92779 92862 92932 92969 92967 92934 92894 92875
1867.2382 92900 92973 93080 93183 93246 93258 93238 93211 93189 93177 93168
1872.5414 93157 93142 93120 93095 93064 93030 92998 92985 93006 93068 93157
1877.8447 93244 93290 93277 93213 93129 93065 93040 93055 93094 93141 93191
1883.1479 93246 93306 93361 93395 93396 93365 93313 93260 93216 93190 93186
1888.4513 93207 93248 93292 93308 93279 93211 93129 93060 93020 93007 93006
1893.7545 93002 92990 92983 93002 93057 93138 93225 93304 93374 93446 93526
1899.0579 93611 93686 93730 93730 93685 93605 93506 93401 93301 93215 93150
1904.3611 93108 93086 93075 93057 93016 92947 92866 92807 92809 92893 93041
1909.6644 93195 93286 93275 93185 93078 93024 93053 93151 93259 93315 93287
1914.9677 93193 93084 93012 93011 93083 93197 93281 93256 93088 92803 92460
1920.2710 92125 91859 91712 91704 91805 91939 92035 92079 92121 92225 92426
1925.5742 92709 93016 93270 93410 93416 93310 93138 92948 92782 92673 92641
1930.8776 92688 92791 92908 92996 93030 93021 92996 92982 92983 92987 92983
1936.1808 92980 93008 93091 93218 93338 93389 93338 93210 93074 92997 93011
1941.4841 93091 93174 93192 93134 93043 92967 92924 92902 92886 92878 92898
1946.7874 92964 93063 93148 93159 93055 92848 92591 92356 92191 92096 92033
1952.0907 91955 91845 91732 91677 91743 91962 92312 92719 93087 93327 93395
1957.3939 93299 93096 92873 92716 92674 92743 92873 92988 93024 92956 92798
1962.6973 92598 92411 92281 92228 92241 92292 92355 92429 92542 92727 92987
