##TITLE= INC01
##JCAMP-DX= 4.24
##DATA TYPE= INFRARED SPECTRUM
##ORIGIN= JASCO
##OWNER= 
##DATE= 22/04/12
##TIME= 12:39:06
##SPECTROMETER/DATA SYSTEM= 
##RESOLUTION= 
##DELTAX=   0.48211674
##XUNITS= 1/CM
##YUNITS= TRANSMITTANCE
##XFACTOR= 1.00000
##YFACTOR= 1E-005
##FIRSTX=   599.7532
##LASTX=  4000.1226
##NPOINTS=     7054
##FIRSTY=      0.68934
##MAXY=      0.96280
##MINY=      0.44001
##XYDATA= (X++(Y..Y))
599.7532 68934 68144 67321 66492 65640 64697 63576 62238 60730 59171 57695
605.0565 56399 55331 54523 54027 53915 54241 55001 56124 57498 59014 60593
610.3598 62179 63703 65067 66159 66894 67248 67264 67019 66579 65981 65244
615.6631 64389 63450 62475 61518 60626 59832 59148 58547 57965 57304 56470
620.9664 55425 54222 52987 51850 50871 50021 49215 48379 47508 46668 45950
626.2697 45404 45014 44715 44454 44221 44051 44001 44104 44368 44790 45393
631.5729 46242 47429 49032 51073 53504 56220 59088 61980 64792 67445 69877
636.8762 72019 73783 75073 75814 76000 75716 75120 74385 73623 72857 72040
642.1795 71112 70076 69017 68070 67346 66878 66605 66426 66272 66137 66074
647.4828 66139 66349 66678 67079 67521 68004 68534 69102 69675 70208 70663
652.7861 71017 71256 71374 71368 71249 71035 70743 70385 69971 69515 69041
658.0894 68573 68113 67634 67091 66462 65768 65072 64449 63945 63551 63212
663.3926 62855 62431 61940 61431 60969 60610 60395 60356 60484 60571 60074
668.6959 58950 57902 57136 56514 55918 55307 54697 54127 53613 53130 52640
673.9992 52143 51713 51455 51435 51620 51885 52098 52204 52251 52340 52540
679.3025 52833 53143 53404 53611 53822 54121 54566 55175 55939 56837 57848
684.6058 58945 60104 61335 62702 64311 66257 68557 71126 73807 76427 78851
689.9091 80986 82768 84156 85159 85862 86411 86943 87488 87932 88068 87717
695.2123 86837 85525 83937 82194 80357 78487 76716 75238 74221 73691 73485
700.5156 73333 73009 72482 71969 71828 72366 73683 75618 77831 79947 81701
705.8189 83006 83923 84561 84994 85234 85271 85118 84834 84494 84135 83745
711.1222 83287 82745 82145 81546 80997 80511 80073 79664 79276 78904 78536
716.4255 78148 77729 77298 76904 76588 76347 76114 75793 75324 74737 74129
721.7288 73584 73116 72664 72128 71427 70537 69490 68339 67135 65917 64725
727.0320 63622 62679 61961 61506 61320 61393 61708 62249 62987 63875 64850
732.3353 65845 66819 67768 68725 69743 70872 72129 73491 74883 76200 77325
737.6386 78174 78719 79000 79097 79090 79027 78908 78699 78363 77888 77293
742.9419 76621 75922 75231 74565 73920 73290 72672 72078 71527 71033 70594
748.2452 70196 69823 69467 69134 68839 68596 68420 68322 68308 68368 68470
753.5485 68562 68593 68539 68410 68245 68078 67926 67787 67665 67586 67591
758.8517 67702 67888 68061 68115 67978 67644 67173 66656 66171 65755 65404
764.1550 65106 64857 64678 64596 64631 64777 65005 65273 65538 65774 65969
769.4583 66128 66267 66405 66564 66765 67020 67328 67662 67977 68219 68356
774.7616 68389 68357 68314 68295 68302 68297 68231 68072 67826 67533 67248
780.0649 67016 66850 66740 66658 66577 66475 66340 66163 65942 65684 65410
785.3682 65146 64915 64722 64556 64400 64245 64097 63966 63852 63731 63563
790.6714 63317 62993 62632 62293 62021 61822 61660 61474 61215 60868 60457
795.9747 60028 59633 59304 59046 58843 58663 58473 58246 57972 57650 57293
801.2780 56916 56540 56182 55864 55608 55440 55377 55430 55597 55862 56200
806.5813 56578 56963 57331 57669 57984 58290 58605 58930 59244 59506 59671
811.8846 59707 59606 59388 59088 58741 58375 58003 57623 57225 56796 56331
817.1879 55847 55377 54967 54665 54510 54528 54740 55164 55819 56713 57833
822.4911 59132 60533 61934 63233 64339 65191 65762 66056 66098 65926 65577
827.7944 65088 64495 63838 63162 62513 61934 61461 61125 60945 60921 61028
833.0977 61216 61426 61609 61741 61832 61912 62012 62150 62324 62520 62719
838.4010 62902 63049 63137 63143 63050 62859 62585 62255 61896 61524 61139
843.7043 60725 60261 59731 59135 58491 57830 57182 56565 55980 55416 54866
849.0076 54335 53850 53450 53174 53051 53094 53301 53651 54110 54633 55172
854.3109 55696 56195 56684 57189 57729 58304 58900 59501 60107 60741 61440
859.6141 62238 63143 64128 65135 66093 66944 67655 68228 68690 69071 69391
864.9174 69647 69822 69893 69848 69693 69445 69131 68775 68400 68031 67692
870.2207 67402 67167 66977 66804 66620 66406 66158 65879 65574 65240 64868
875.5240 64458 64022 63586 63175 62808 62484 62193 61922 61664 61419 61191
880.8273 60983 60797 60627 60468 60312 60151 59982 59807 59637 59484 59363
886.1306 59276 59216 59169 59122 59065 58999 58927 58854 58788 58737 58710
891.4338 58715 58753 58811 58868 58898 58878 58804 58685 58541 58394 58258
896.7371 58137 58025 57912 57795 57674 57557 57449 57356 57276 57204 57131
902.0404 57049 56950 56836 56710 56582 56461 56352 56245 56124 55971 55776
907.3437 55543 55287 55026 54772 54530 54297 54071 53853 53644 53444 53246
912.6470 53042 52821 52581 52325 52060 51799 51552 51325 51118 50926 50741
917.9503 50558 50380 50216 50074 49951 49830 49692 49524 49335 49148 48992
923.2535 48885 48831 48824 48855 48923 49026 49159 49311 49471 49638 49824
928.5568 50056 50357 50737 51184 51674 52176 52668 53139 53584 54001 54390
933.8601 54753 55103 55460 55847 56274 56737 57214 57683 58136 58581 59044
939.1634 59553 60121 60739 61382 62023 62633 63195 63694 64120 64468 64740
944.4667 64942 65082 65159 65167 65096 64947 64744 64536 64387 64361 64500
949.7700 64816 65284 65851 66453 67034 67560 68020 68427 68805 69181 69575
955.0732 70002 70462 70950 71458 71975 72498 73019 73532 74023 74478 74885
960.3765 75245 75567 75870 76166 76458 76737 76990 77203 77372 77500 77600
965.6798 77690 77785 77898 78035 78186 78337 78464 78547 78576 78554 78502
970.9831 78450 78432 78473 78579 78741 78935 79132 79312 79464 79588 79690
976.2864 79775 79851 79922 79989 80052 80107 80145 80162 80161 80155 80159
981.5897 80188 80244 80318 80395 80464 80522 80573 80624 80681 80741 80806
986.8929 80875 80949 81029 81107 81179 81240 81293 81343 81396 81447 81487
992.1962 81505 81496 81468 81431 81400 81384 81386 81402 81426 81451 81471
997.4995 81486 81494 81502 81514 81535 81564 81599 81636 81668 81691 81699
1002.8028 81690 81658 81601 81517 81411 81289 81164 81040 80917 80778 80596
1008.1061 80337 79966 79450 78763 77893 76860 75727 74609 73654 73006 72762
1013.4094 72941 73478 74251 75121 75973 76737 77390 77939 78397 78779 79088
1018.7126 79327 79501 79625 79720 79806 79892 79971 80024 80028 79976 79878
1024.0160 79763 79665 79606 79593 79611 79637 79643 79613 79546 79454 79359
1029.3192 79282 79230 79193 79154 79093 79008 78910 78821 78750 78687 78605
1034.6226 78475 78289 78063 77839 77657 77535 77466 77419 77363 77280 77169
1039.9258 77039 76901 76759 76613 76465 76325 76202 76103 76020 75935 75830
1045.2291 75699 75550 75401 75264 75144 75030 74915 74795 74674 74555 74433
1050.5323 74295 74129 73935 73728 73530 73355 73203 73059 72907 72741 72565
1055.8357 72394 72234 72081 71922 71737 71517 71266 71000 70740 70499 70277
1061.1389 70059 69823 69550 69228 68855 68440 67997 67545 67100 66672 66262
1066.4423 65858 65439 64988 64495 63962 63402 62832 62276 61768 61353 61086
1071.7455 61011 61149 61477 61932 62422 62857 63168 63317 63299 63134 62855
1077.0488 62499 62101 61682 61246 60784 60281 59732 59147 58556 57996 57494
1082.3521 57061 56691 56374 56102 55879 55718 55632 55621 55676 55778 55903
1087.6554 56039 56185 56360 56593 56914 57346 57892 58535 59246 59993 60749
1092.9586 61499 62234 62946 63626 64265 64855 65395 65891 66349 66776 67171
1098.2620 67525 67826 68056 68210 68292 68331 68372 68475 68699 69088 69660
1103.5652 70401 71261 72163 73018 73742 74279 74606 74739 74719 74594 74403
1108.8685 74162 73866 73502 73058 72537 71956 71342 70721 70107 69503 68902
1114.1718 68297 67687 67078 66474 65868 65245 64583 63866 63096 62290 61470
1119.4751 60659 59867 59090 58321 57553 56782 56010 55239 54472 53713 52973
1124.7783 52269 51621 51047 50555 50141 49791 49487 49214 48967 48753 48590
1130.0817 48502 48509 48622 48835 49132 49495 49914 50386 50918 51515 52169
1135.3849 52869 53602 54361 55152 55982 56851 57744 58634 59491 60296 61048
1140.6882 61759 62449 63139 63849 64589 65366 66182 67035 67923 68849 69823
1145.9915 70860 71971 73162 74426 75745 77092 78432 79723 80920 81986 82902
1151.2948 83679 84354 84979 85607 86270 86980 87725 88484 89235 89966 90669
1156.5980 91341 91976 92566 93098 93562 93951 94264 94509 94695 94832 94932
1161.9014 95005 95061 95109 95152 95188 95212 95213 95184 95124 95042 94953
1167.2046 94874 94814 94773 94742 94708 94660 94597 94520 94431 94332 94220
1172.5079 94092 93949 93794 93627 93440 93214 92929 92578 92176 91766 91404
1177.8112 91142 91002 90977 91041 91160 91315 91496 91700 91916 92121 92295
1183.1145 92419 92492 92518 92508 92471 92412 92336 92246 92149 92046 91938
1188.4177 91827 91716 91606 91497 91382 91254 91108 90948 90786 90638 90513
1193.7211 90411 90323 90237 90146 90050 89951 89851 89751 89652 89554 89459
1199.0243 89364 89267 89162 89043 88910 88764 88608 88448 88286 88128 87977
1204.3276 87836 87707 87582 87456 87320 87171 87007 86834 86655 86470 86276
1209.6309 86070 85849 85610 85354 85082 84794 84494 84183 83867 83553 83246
1214.9342 82949 82666 82399 82155 81943 81771 81642 81554 81496 81460 81436
1220.2374 81419 81405 81391 81373 81343 81293 81215 81103 80960 80790 80603
1225.5408 80406 80200 79977 79728 79446 79133 78799 78459 78126 77806 77501
1230.8440 77211 76937 76681 76445 76227 76020 75820 75621 75418 75210 74994
1236.1473 74768 74528 74277 74015 73746 73474 73197 72918 72638 72359 72087
1241.4506 71820 71555 71283 70992 70671 70318 69931 69515 69079 68628 68169
1246.7539 67708 67252 66809 66386 65987 65613 65259 64919 64583 64246 63904
1252.0571 63558 63214 62876 62548 62227 61913 61602 61291 60983 60681 60388
1257.3605 60103 59826 59554 59285 59025 58787 58590 58451 58384 58388 58455
1262.6637 58572 58719 58874 59004 59068 59020 58825 58479 58031 57578 57242
1267.9670 57129 57288 57703 58319 59080 59958 60951 62060 63263 64503 65704
1273.2703 66794 67727 68482 69050 69431 69626 69640 69490 69205 68823 68389
1278.5736 67950 67551 67241 67069 67084 67326 67813 68539 69479 70594 71843
1283.8768 73185 74580 75989 77376 78708 79961 81114 82151 83061 83840 84495
1289.1802 85042 85504 85899 86239 86519 86726 86843 86857 86760 86544 86193
1294.4834 85686 85003 84160 83223 82311 81571 81125 81026 81255 81742 82407
1299.7867 83194 84073 85022 86003 86951 87786 88438 88869 89077 89092 88951
1305.0900 88692 88346 87942 87501 87043 86580 86118 85656 85197 84744 84308
1310.3933 83897 83518 83171 82849 82538 82224 81893 81535 81137 80685 80165
1315.6965 79569 78898 78158 77353 76481 75537 74531 73503 72522 71674 71027
1320.9999 70623 70477 70592 70959 71557 72346 73271 74269 75275 76237 77111
1326.3031 77865 78477 78938 79256 79453 79564 79623 79662 79700 79752 79831
1331.6064 79955 80150 80436 80826 81314 81883 82518 83210 83954 84741 85548
1336.9097 86345 87102 87808 88466 89085 89662 90180 90619 90972 91250 91470
1342.2130 91643 91777 91876 91947 92002 92052 92101 92145 92175 92186 92182
1347.5162 92172 92166 92167 92172 92170 92158 92138 92118 92108 92113 92130
1352.8196 92149 92159 92149 92118 92070 92013 91955 91897 91836 91765 91679
1358.1228 91579 91470 91359 91250 91143 91037 90927 90805 90663 90500 90318
1363.4261 90130 89944 89763 89584 89409 89243 89091 88958 88839 88726 88609
1368.7294 88483 88350 88215 88082 87952 87827 87707 87595 87487 87372 87235
1374.0327 87069 86891 86726 86595 86498 86423 86357 86284 86196 86091 85971
1379.3359 85843 85714 85587 85460 85331 85193 85039 84865 84675 84478 84287
1384.6393 84111 83951 83801 83645 83462 83240 82986 82727 82481 82247 82012
1389.9425 81764 81499 81225 80958 80710 80478 80244 79982 79664 79292 78916
1395.2458 78618 78440 78365 78346 78333 78280 78139 77889 77560 77219 76913
1400.5491 76644 76391 76136 75878 75625 75381 75136 74867 74554 74205 73858
1405.8524 73546 73269 72999 72706 72374 72005 71615 71217 70813 70397 69962
1411.1556 69514 69065 68628 68216 67836 67492 67181 66892 66605 66308 66005
1416.4590 65712 65448 65202 64920 64514 63943 63332 62898 62717 62718 62807
1421.7622 62924 63035 63122 63181 63223 63279 63376 63525 63727 63981 64286
1427.0656 64632 65008 65400 65805 66230 66685 67168 67658 68134 68592 69042
1432.3688 69498 69964 70423 70856 71251 71620 72000 72458 73067 73807 74542
1437.6721 75184 75763 76340 76955 77612 78292 78965 79605 80205 80769 81303
1442.9753 81809 82285 82731 83142 83516 83847 84137 84394 84626 84839 85027
1448.2787 85179 85293 85383 85463 85546 85631 85713 85779 85823 85847 85859
1453.5819 85870 85885 85904 85922 85928 85904 85831 85708 85560 85412 85264
1458.8853 85107 84938 84756 84565 84369 84177 84002 83855 83735 83630 83511
1464.1885 83345 83122 82883 82684 82541 82433 82330 82212 82069 81910 81748
1469.4918 81595 81461 81348 81254 81174 81087 80965 80808 80649 80509 80384
1474.7950 80253 80095 79896 79663 79429 79219 79033 78859 78682 78493 78290
1480.0984 78071 77837 77592 77344 77098 76850 76590 76310 76010 75700 75389
1485.4016 75069 74710 74281 73786 73283 72845 72490 72155 71716 71065 70238
1490.7050 69428 68777 68276 67860 67486 67151 66873 66678 66609 66730 67116
1496.0082 67781 68621 69503 70403 71386 72489 73622 74606 75315 75753 76005
1501.3115 76152 76242 76297 76330 76358 76401 76471 76560 76617 76499 75970
1506.6147 75043 74220 73733 73416 73137 72866 72611 72371 72117 71810 71422
1511.9181 70964 70487 70056 69706 69433 69211 69002 68749 68352 67704 66840
1517.2213 66041 65552 65366 65357 65406 65410 65219 64590 63371 61981 61062
1522.5247 60657 60509 60427 60312 60102 59772 59360 58957 58643 58441 58335
1527.8279 58312 58386 58584 58925 59406 60000 60673 61394 62155 62997 64019
1533.1312 65307 66779 68193 69409 70469 71460 72426 73364 74246 75062 75859
1538.4344 76787 78075 79707 81114 81957 82520 83110 83800 84497 85090 85556
1543.7378 85954 86360 86799 87224 87564 87800 87970 88116 88263 88415 88561
1549.0410 88673 88708 88638 88482 88294 88115 87956 87806 87628 87369 86984
1554.3444 86514 86080 85756 85527 85349 85194 85047 84897 84618 83724 82031
1559.6476 80430 79277 78429 77754 77169 76611 76028 75371 74599 73686 72656
1564.9509 71606 70661 69902 69333 68914 68587 68272 67848 67174 66237 65307
1570.2542 64686 64391 64296 64311 64410 64597 64879 65243 65667 66147 66710
1575.5575 67409 68229 69009 69617 70089 70506 70914 71322 71726 72112 72472
1580.8607 72802 73108 73394 73665 73923 74169 74401 74614 74799 74951 75066
1586.1641 75144 75178 75162 75089 74956 74765 74524 74239 73913 73552 73165
1591.4674 72771 72398 72073 71825 71682 71675 71829 72163 72677 73360 74188
1596.7706 75137 76170 77248 78327 79375 80375 81320 82205 83023 83763 84417
1602.0740 84990 85488 85926 86314 86660 86974 87262 87531 87785 88026 88255
1607.3772 88473 88681 88880 89064 89229 89372 89498 89618 89740 89871 90013
1612.6805 90163 90315 90464 90606 90741 90871 90989 91077 91111 91096 91072
1617.9838 91060 91058 91053 91036 91005 90963 90916 90871 90823 90764 90684
1623.2871 90588 90506 90466 90468 90503 90560 90630 90705 90775 90838 90907
1628.5903 90999 91125 91279 91453 91633 91810 91977 92134 92284 92435 92592
1633.8937 92760 92935 93093 93172 93140 93050 92971 92929 92932 92988 93099
1639.1969 93265 93479 93729 93999 94275 94542 94792 95021 95235 95441 95644
1644.5002 95846 96038 96195 96280 96255 96134 95976 95835 95731 95669 95645
1649.8035 95655 95692 95750 95818 95877 95874 95685 95293 95034 94966 94947
1655.1068 94923 94889 94849 94812 94777 94744 94707 94663 94615 94573 94545
1660.4100 94537 94543 94544 94511 94423 94293 94171 94091 94054 94042 94040
1665.7134 94043 94052 94074 94114 94168 94218 94234 94196 94120 94048 93994
1671.0166 93952 93907 93858 93814 93787 93784 93804 93835 93847 93812 93739
1676.3199 93671 93630 93619 93631 93664 93716 93781 93852 93916 93967 94008
1681.6232 94046 94092 94159 94262 94392 94456 94356 94193 94064 93971 93895
1686.9265 93825 93759 93700 93656 93630 93619 93611 93595 93564 93515 93447
1692.2297 93363 93269 93171 93075 92985 92898 92799 92663 92497 92353 92258
1697.5331 92207 92188 92194 92223 92260 92269 92229 92199 92215 92267 92343
1702.8363 92437 92545 92661 92772 92865 92930 92968 92984 92994 93010 93038
1708.1396 93081 93138 93205 93280 93359 93439 93520 93599 93674 93740 93787
1713.4429 93803 93772 93695 93595 93508 93456 93437 93423 93351 93152 92850
1718.7462 92554 92319 92139 91993 91870 91765 91677 91602 91531 91455 91371
1724.0494 91279 91184 91090 90995 90901 90812 90735 90678 90648 90647 90677
1729.3528 90731 90795 90851 90890 90916 90939 90971 91026 91118 91243 91348
1734.6560 91394 91406 91419 91446 91490 91550 91628 91718 91809 91876 91884
1739.9594 91826 91741 91669 91630 91623 91636 91646 91629 91572 91484 91384
1745.2626 91284 91189 91097 91010 90932 90874 90846 90851 90884 90939 91014
1750.5659 91108 91217 91327 91421 91495 91551 91592 91620 91635 91643 91649
1755.8691 91664 91698 91747 91794 91824 91831 91823 91812 91815 91844 91907
1761.1725 91994 92076 92116 92110 92075 92033 91994 91962 91938 91920 91906
1766.4757 91891 91871 91842 91810 91790 91795 91828 91886 91960 92039 92100
1771.7791 92106 92041 91939 91851 91793 91761 91748 91746 91745 91737 91716
1777.0823 91685 91654 91635 91639 91670 91720 91766 91780 91747 91674 91587
1782.3856 91509 91452 91423 91420 91436 91457 91466 91455 91426 91389 91357
1787.6888 91336 91330 91334 91340 91342 91338 91332 91334 91354 91395 91442
1792.9922 91478 91499 91512 91524 91540 91556 91562 91549 91515 91465 91410
1798.2954 91363 91333 91329 91351 91390 91432 91465 91484 91483 91465 91438
1803.5988 91413 91402 91411 91439 91480 91520 91542 91537 91502 91449 91393
1808.9020 91352 91338 91354 91391 91431 91453 91447 91419 91380 91341 91312
1814.2053 91298 91300 91321 91358 91408 91463 91514 91552 91570 91565 91536
1819.5085 91487 91429 91375 91342 91340 91365 91399 91421 91420 91394 91359
1824.8119 91338 91346 91380 91424 91469 91517 91575 91650 91735 91802 91811
1830.1151 91751 91653 91558 91486 91438 91408 91394 91393 91408 91438 91478
1835.4185 91519 91548 91554 91539 91517 91514 91548 91620 91711 91788 91818
1840.7217 91787 91704 91600 91510 91457 91453 91488 91527 91532 91498 91442
1846.0250 91385 91339 91310 91299 91303 91312 91315 91307 91288 91261 91230
1851.3282 91197 91163 91129 91101 91081 91073 91073 91077 91079 91072 91052
1856.6316 91017 90966 90909 90858 90830 90830 90849 90861 90843 90789 90717
1861.9348 90664 90663 90722 90815 90898 90933 90906 90838 90767 90734 90755
1867.2382 90814 90867 90863 90783 90658 90556 90518 90542 90595 90642 90660
1872.5414 90650 90632 90638 90685 90767 90855 90917 90930 90893 90820 90738
1877.8447 90669 90628 90620 90639 90674 90707 90726 90724 90703 90667 90627
1883.1479 90593 90577 90592 90642 90712 90776 90801 90773 90702 90618 90555
1888.4513 90541 90583 90658 90732 90787 90823 90854 90884 90905 90903 90861
1893.7545 90778 90669 90560 90483 90453 90465 90497 90526 90532 90515 90490
1899.0579 90484 90527 90632 90786 90945 91053 91063 90962 90785 90595 90457
1904.3611 90404 90424 90471 90499 90484 90437 90393 90391 90447 90554 90680
1909.6644 90789 90853 90860 90815 90736 90654 90602 90613 90694 90826 90958
1914.9677 91039 91045 90988 90911 90867 90890 90967 91041 91058 91013 90943
1920.2710 90891 90885 90930 91008 91092 91163 91225 91287 91350 91397 91408
1925.5742 91373 91307 91235 91182 91144 91098 91014 90892 90763 90682 90694
1930.8776 90808 90985 91160 91273 91299 91260 91205 91179 91195 91230 91240
1936.1808 91196 91103 91002 90945 90958 91027 91106 91154 91164 91169 91220
1941.4841 91356 91558 91742 91802 91682 91409 91062 90729 90489 90397 90456
1946.7874 90622 90831 91027 91183 91288 91332 91308 91232 91149 91125 91211
1952.0907 91394 91591 91689 91612 91382 91108 90919 90885 90981 91118 91222
1957.3939 91280 91341 91467 91670 91899 92063 92089 91959 91716 91435 91188
1962.6973 91033 91002 91100 91302 91556 91797 91973 92071 92115 92163 92271
