##TITLE= INCCHININA
##JCAMP-DX= 4.24
##DATA TYPE= INFRARED SPECTRUM
##ORIGIN= JASCO
##OWNER= 
##DATE= 22/04/13
##TIME= 15:55:50
##SPECTROMETER/DATA SYSTEM= 
##RESOLUTION= 
##DELTAX=   0.48211674
##XUNITS= 1/CM
##YUNITS= TRANSMITTANCE
##XFACTOR= 1.00000
##YFACTOR= 1E-005
##FIRSTX=   599.7532
##LASTX=  4000.1226
##NPOINTS=     7054
##FIRSTY=      0.52578
##MAXY=      0.99520
##MINY=      0.43327
##XYDATA= (X++(Y..Y))
599.7532 52578 53981 55405 56683 57697 58387 58773 58934 58977 58986 58976
605.0565 58898 58694 58355 57957 57630 57495 57605 57918 58326 58710 58993
610.3598 59179 59348 59628 60151 60993 62137 63467 64811 66008 66967 67695
615.6631 68274 68808 69371 69984 70620 71239 71813 72326 72762 73094 73294
620.9664 73356 73309 73226 73203 73329 73657 74189 74865 75585 76242 76772
626.2697 77178 77506 77799 78061 78257 78341 78308 78199 78083 78002 77940
631.5729 77834 77613 77251 76777 76257 75751 75282 74836 74378 73870 73289
636.8762 72621 71849 70945 69870 68592 67102 65443 63713 62057 60631 59577
642.1795 58992 58929 59403 60397 61864 63715 65834 68104 70438 72787 75115
647.4828 77364 79443 81252 82738 83920 84868 85640 86243 86631 86755 86605
652.7861 86245 85802 85417 85202 85199 85369 85609 85789 85807 85626 85280
658.0894 84840 84374 83921 83498 83127 82852 82745 82874 83275 83920 84708
663.3926 85467 86001 86166 85941 85415 84729 84019 83427 83162 83528 84456
668.6959 85020 84901 84594 84428 84491 84758 85133 85499 85779 86001 86290
673.9992 86777 87501 88352 89111 89547 89533 89101 88430 87759 87283 87068
679.3025 87027 86966 86680 86066 85187 84257 83546 83255 83433 83964 84629
684.6058 85191 85471 85409 85073 84603 84137 83735 83373 82982 82513 81997
689.9091 81529 81204 81023 80871 80582 80056 79357 78691 78286 78246 78486
695.2123 78788 78941 78877 78706 78637 78845 79386 80199 81192 82312 83562
700.5156 84942 86387 87750 88848 89554 89860 89866 89720 89544 89399 89289
705.8189 89193 89086 88939 88723 88422 88050 87659 87318 87062 86860 86622
711.1222 86250 85689 84955 84096 83139 82066 80826 79386 77750 75955 74040
716.4255 72047 70045 68183 66700 65897 66061 67360 69734 72848 76193 79298
721.7288 81901 83960 85560 86811 87795 88549 89066 89321 89301 89046 88663
727.0320 88307 88123 88183 88455 88822 89143 89322 89345 89277 89210 89211
732.3353 89287 89381 89407 89286 88993 88565 88088 87660 87359 87224 87246
737.6386 87383 87575 87754 87866 87886 87830 87750 87714 87765 87903 88081
742.9419 88234 88310 88293 88195 88040 87844 87612 87352 87081 86824 86603
748.2452 86422 86266 86110 85932 85726 85489 85216 84888 84485 84003 83466
753.5485 82930 82452 82062 81739 81419 81031 80547 80005 79495 79111 78898
758.8517 78832 78845 78876 78920 79028 79286 79771 80515 81496 82636 83814
764.1550 84891 85737 86271 86482 86440 86261 86063 85917 85838 85797 85760
769.4583 85722 85717 85806 86042 86442 86970 87537 88036 88368 88485 88390
774.7616 88134 87784 87398 87012 86643 86299 85992 85736 85535 85379 85245
780.0649 85111 84972 84846 84763 84747 84795 84877 84956 85004 85021 85025
785.3682 85034 85047 85049 85020 84957 84877 84805 84754 84715 84655 84539
790.6714 84346 84084 83787 83499 83252 83056 82886 82695 82433 82065 81584
795.9747 81005 80342 79586 78707 77673 76477 75152 73757 72352 70978 69660
801.2780 68431 67362 66559 66145 66211 66791 67847 69286 70976 72778 74565
806.5813 76241 77754 79098 80300 81393 82401 83320 84129 84804 85327 85704
811.8846 85957 86128 86263 86405 86576 86771 86955 87087 87137 87106 87021
817.1879 86913 86796 86665 86500 86290 86038 85748 85414 84999 84445 83688
822.4911 82676 81374 79755 77783 75427 72697 69708 66728 64166 62494 62093
827.7944 63102 65334 68324 71481 74277 76399 77790 78599 79065 79418 79813
833.0977 80324 80960 81700 82506 83344 84188 85028 85862 86686 87470 88166
838.4010 88719 89105 89344 89492 89602 89691 89732 89681 89515 89264 88997
843.7043 88782 88648 88568 88478 88314 88039 87651 87169 86621 86027 85400
849.0076 84736 84015 83190 82199 80985 79519 77827 75982 74089 72248 70528
854.3109 68945 67468 66046 64646 63290 62075 61169 60778 61092 62236 64235
859.6141 67001 70343 73998 77677 81117 84130 86619 88572 90034 91067 91727
864.9174 92059 92101 91911 91575 91213 90961 90940 91227 91823 92659 93611
870.2207 94543 95337 95921 96270 96401 96358 96193 95954 95676 95371 95036
875.5240 94663 94253 93819 93380 92946 92503 92016 91443 90754 89953 89090
880.8273 88254 87564 87140 87070 87384 88033 88899 89826 90668 91330 91787
886.1306 92072 92241 92344 92403 92419 92385 92309 92216 92136 92086 92059
891.4338 92030 91977 91900 91825 91791 91822 91906 92001 92057 92043 91963
896.7371 91844 91722 91616 91531 91456 91383 91303 91207 91083 90919 90709
902.0404 90457 90180 89902 89649 89437 89266 89118 88962 88764 88508 88207
907.3437 87894 87605 87356 87128 86882 86578 86196 85745 85255 84756 84263
912.6470 83773 83265 82706 82057 81281 80357 79295 78154 77040 76093 75460
917.9503 75252 75515 76217 77249 78457 79669 80729 81521 81983 82109 81950
923.2535 81590 81130 80667 80275 80007 79889 79927 80105 80386 80713 81019
928.5568 81238 81321 81243 81008 80641 80176 79639 79040 78365 77591 76699
933.8601 75696 74621 73545 72550 71708 71056 70586 70243 69938 69569 69054
939.1634 68367 67559 66766 66188 66040 66494 67628 69397 71637 74112 76562
944.4667 78759 80549 81862 82711 83167 83325 83272 83068 82741 82301 81765
949.7700 81167 80568 80047 79680 79521 79591 79872 80315 80860 81448 82031
955.0732 82567 83022 83363 83560 83601 83493 83266 82954 82585 82161 81661
960.3765 81056 80320 79452 78467 77402 76302 75225 74232 73381 72707 72210
965.6798 71858 71605 71429 71351 71430 71726 72257 72968 73739 74427 74918
970.9831 75161 75172 75004 74712 74330 73869 73323 72690 71968 71157 70255
976.2864 69260 68180 67040 65889 64799 63855 63143 62732 62669 62963 63591
981.5897 64496 65599 66813 68054 69249 70337 71266 71992 72485 72736 72761
986.8929 72598 72294 71890 71417 70898 70351 69795 69244 68697 68138 67543
992.1962 66886 66156 65353 64486 63565 62596 61585 60545 59494 58455 57450
997.4995 56493 55594 54765 54025 53405 52946 52686 52657 52868 53305 53934
1002.8028 54699 55530 56344 57049 57560 57809 57758 57416 56835 56102 55330
1008.1061 54637 54132 53901 53993 54404 55069 55870 56653 57262 57574 57525
1013.4094 57119 56415 55511 54512 53517 52608 51844 51266 50889 50700 50659
1018.7126 50698 50741 50710 50550 50226 49734 49090 48325 47481 46608 45760
1024.0160 44992 44351 43867 43546 43374 43327 43386 43552 43847 44307 44960
1029.3192 45822 46884 48122 49499 50972 52487 53984 55393 56650 57706 58542
1034.6226 59172 59637 59996 60316 60661 61083 61618 62282 63075 63986 64995
1039.9258 66079 67208 68351 69473 70546 71552 72480 73330 74099 74792 75410
1045.2291 75961 76447 76874 77244 77569 77870 78171 78492 78837 79190 79524
1050.5323 79819 80071 80291 80491 80669 80813 80902 80921 80873 80777 80656
1055.8357 80530 80408 80291 80174 80058 79947 79847 79758 79667 79552 79392
1061.1389 79179 78925 78657 78406 78185 77985 77779 77538 77240 76882 76474
1066.4423 76030 75561 75074 74571 74055 73526 72989 72453 71930 71429 70948
1071.7455 70465 69947 69358 68689 67960 67225 66540 65947 65447 65018 64625
1077.0488 64252 63900 63589 63335 63140 62993 62881 62806 62791 62876 63103
1082.3521 63497 64048 64709 65410 66077 66664 67163 67602 68033 68508 69063
1087.6554 69709 70424 71158 71855 72486 73064 73640 74257 74897 75467 75844
1092.9586 75969 75924 75921 76205 76906 77962 79142 80174 80880 81247 81402
1098.2620 81515 81707 82021 82434 82907 83408 83915 84411 84881 85322 85740
1103.5652 86150 86549 86914 87206 87396 87488 87520 87545 87602 87695 87793
1108.8685 87853 87845 87763 87630 87475 87318 87164 87009 86852 86697 86552
1114.1718 86421 86297 86170 86029 85873 85704 85523 85329 85115 84877 84616
1119.4751 84330 84014 83656 83248 82786 82275 81722 81123 80466 79740 78954
1124.7783 78145 77385 76756 76327 76119 76097 76174 76225 76133 75818 75261
1130.0817 74513 73682 72902 72301 71973 71953 72214 72677 73240 73803 74295
1135.3849 74676 74936 75082 75128 75095 75010 74904 74810 74755 74758 74830
1140.6882 74980 75213 75528 75914 76350 76813 77288 77777 78288 78830 79401
1145.9915 79985 80563 81124 81667 82201 82731 83243 83706 84079 84327 84438
1151.2948 84429 84348 84255 84207 84245 84379 84597 84874 85190 85538 85924
1156.5980 86352 86816 87290 87741 88142 88488 88793 89080 89367 89661 89955
1161.9014 90236 90497 90736 90955 91160 91359 91557 91755 91947 92122 92270
1167.2046 92383 92465 92520 92561 92596 92637 92696 92786 92914 93071 93239
1172.5079 93394 93517 93605 93667 93713 93749 93768 93761 93720 93642 93528
1177.8112 93379 93199 93000 92808 92657 92585 92613 92740 92943 93186 93433
1183.1145 93653 93826 93933 93962 93906 93770 93573 93347 93127 92950 92839
1188.4177 92810 92866 93003 93212 93479 93785 94110 94433 94735 95002 95226
1193.7211 95407 95546 95651 95723 95764 95773 95748 95691 95607 95500 95371
1199.0243 95215 95021 94778 94479 94127 93728 93290 92825 92346 91878 91451
1204.3276 91104 90869 90764 90786 90909 91092 91288 91451 91549 91564 91496
1209.6309 91356 91172 90981 90823 90735 90737 90834 91010 91238 91488 91734
1214.9342 91952 92121 92216 92215 92099 91856 91482 90980 90356 89622 88793
1220.2374 87894 86953 85998 85048 84105 83148 82133 80999 79681 78124 76305
1225.5408 74245 72018 69746 67595 65746 64373 63606 63501 64029 65090 66536
1230.8440 68215 69993 71769 73470 75040 76435 77620 78563 79241 79635 79731
1236.1473 79521 79005 78195 77109 75764 74184 72389 70418 68325 66200 64160
1241.4506 62354 60949 60123 60037 60808 62471 64954 68077 71585 75193 78643
1246.7539 81742 84387 86559 88302 89696 90826 91763 92553 93225 93785 94230
1252.0571 94550 94733 94772 94663 94409 94015 93492 92856 92141 91402 90717
1257.3605 90177 89865 89841 90119 90670 91422 92277 93142 93948 94664 95290
1262.6637 95835 96306 96698 96999 97204 97318 97356 97336 97269 97159 97003
1267.9670 96804 96577 96348 96148 96004 95933 95945 96041 96218 96469 96784
1273.2703 97151 97551 97961 98354 98703 98991 99212 99368 99466 99513 99520
1278.5736 99494 99444 99379 99307 99234 99167 99112 99072 99048 99033 99017
1283.8768 98988 98935 98855 98748 98620 98478 98329 98179 98032 97887 97738
1289.1802 97576 97395 97195 96983 96770 96563 96363 96163 95952 95720 95466
1294.4834 95189 94895 94584 94256 93907 93529 93123 92692 92249 91813 91406
1299.7867 91050 90761 90547 90410 90346 90345 90393 90474 90576 90694 90835
1305.0900 91011 91238 91522 91861 92240 92633 93006 93330 93579 93744 93827
1310.3933 93838 93790 93693 93553 93379 93185 92990 92811 92649 92493 92319
1315.6965 92103 91829 91494 91097 90637 90099 89469 88748 87966 87184 86477
1320.9999 85913 85546 85408 85516 85863 86420 87138 87958 88817 89662 90449
1326.3031 91147 91736 92204 92553 92792 92936 93000 92993 92916 92766 92544
1331.6064 92258 91925 91566 91199 90837 90484 90141 89819 89537 89324 89202
1336.9097 89179 89239 89348 89458 89522 89488 89321 89006 88561 88016 87401
1342.2130 86747 86087 85470 84956 84604 84463 84555 84872 85373 85995 86669
1347.5162 87340 87980 88585 89168 89739 90296 90823 91295 91687 91975 92146
1352.8196 92196 92126 91943 91662 91300 90880 90424 89951 89481 89034 88637
1358.1228 88313 88068 87894 87766 87655 87536 87390 87207 86978 86701 86387
1363.4261 86065 85770 85524 85338 85221 85182 85242 85427 85759 86244 86855
1368.7294 87532 88195 88781 89264 89653 89976 90259 90528 90805 91120 91500
1374.0327 91954 92455 92951 93406 93813 94189 94551 94908 95256 95584 95878
1379.3359 96134 96355 96547 96713 96854 96965 97045 97094 97115 97118 97109
1384.6393 97096 97079 97056 97025 96979 96917 96841 96759 96678 96599 96525
1389.9425 96457 96399 96353 96316 96277 96221 96131 95992 95796 95547 95275
1395.2458 95016 94785 94575 94374 94179 93999 93861 93796 93815 93895 93998
1400.5491 94097 94180 94247 94291 94312 94306 94278 94237 94192 94154 94127
1405.8524 94109 94097 94087 94081 94081 94094 94123 94168 94220 94267 94297
1411.1556 94305 94295 94279 94267 94265 94269 94276 94280 94277 94264 94237
1416.4590 94189 94115 94005 93848 93628 93348 93044 92771 92546 92350 92160
1421.7622 91956 91720 91427 91053 90598 90091 89562 89008 88394 87674 86827
1427.0656 85857 84785 83605 82266 80698 78903 77036 75356 74066 73241 72902
1432.3688 73070 73741 74805 76053 77286 78431 79563 80875 82509 84258 85635
1437.6721 86452 86888 87155 87369 87557 87709 87810 87865 87901 87951 88036
1442.9753 88160 88310 88464 88596 88682 88706 88660 88547 88383 88206 88068
1448.2787 88007 88017 88061 88100 88109 88071 87976 87813 87581 87288 86950
1453.5819 86582 86194 85794 85384 84967 84555 84177 83872 83632 83399 83127
1458.8853 82813 82481 82157 81864 81619 81431 81301 81222 81186 81193 81252
1464.1885 81369 81511 81612 81611 81500 81287 80966 80507 79882 79091 78174
1469.4918 77187 76165 75106 73985 72812 71748 71157 71277 71891 72656 73444
1474.7950 74317 75404 76784 78370 79910 81193 82196 83025 83788 84539 85278
1480.0984 85969 86577 87085 87499 87829 88079 88248 88341 88366 88337 88267
1485.4016 88170 88061 87958 87876 87820 87784 87758 87748 87784 87907 88124
1490.7050 88383 88626 88830 89004 89154 89280 89375 89433 89457 89453 89434
1496.0082 89408 89373 89313 89207 89036 88792 88491 88160 87820 87458 87036
1501.3115 86519 85898 85203 84483 83775 83075 82349 81537 80536 79168 77266
1506.6147 75083 73286 72129 71502 71318 71538 72124 73056 74363 76115 78336
1511.9181 80899 83492 85767 87545 88867 89881 90731 91515 92287 93057 93779
1517.2213 94357 94745 94974 95100 95167 95211 95275 95409 95647 95919 96118
1522.5247 96225 96277 96301 96312 96321 96340 96377 96427 96472 96499 96506
1527.8279 96504 96505 96513 96521 96522 96507 96475 96426 96365 96300 96248
1533.1312 96231 96256 96303 96343 96363 96365 96356 96344 96330 96318 96307
1538.4344 96298 96286 96262 96221 96169 96116 96065 96018 95975 95934 95892
1543.7378 95847 95801 95756 95716 95678 95640 95594 95539 95471 95386 95279
1549.0410 95151 95010 94876 94766 94677 94596 94510 94410 94291 94155 94017
1554.3444 93902 93819 93755 93694 93623 93538 93434 93302 93138 92981 92922
1559.6476 92946 92984 93011 93024 93021 93000 92961 92905 92835 92767 92717
1564.9509 92697 92700 92704 92693 92659 92601 92521 92418 92292 92157 92040
1570.2542 91958 91898 91841 91771 91677 91551 91396 91224 91049 90888 90767
1575.5575 90733 90822 90988 91139 91237 91301 91349 91388 91414 91416 91390
1580.8607 91335 91256 91158 91044 90916 90778 90633 90486 90334 90171 89982
1586.1641 89753 89467 89116 88695 88211 87673 87092 86468 85791 85048 84237
1591.4674 83383 82537 81778 81195 80874 80885 81254 81952 82898 83986 85111
1596.7706 86188 87159 87985 88654 89173 89559 89834 90015 90119 90163 90167
1602.0740 90150 90122 90082 90023 89933 89808 89644 89446 89218 88968 88705
1607.3772 88434 88154 87859 87541 87190 86804 86385 85939 85463 84944 84368
1612.6805 83730 83052 82371 81723 81109 80484 79748 78776 77591 76482 75706
1617.9838 75240 74975 74858 74896 75111 75501 76032 76680 77487 78589 80142
1623.2871 82102 84084 85686 86831 87667 88351 88991 89641 90311 90959 91517
1628.5903 91945 92256 92490 92686 92865 93033 93179 93288 93353 93380 93384
1633.8937 93384 93404 93470 93585 93704 93778 93814 93833 93847 93854 93846
1639.1969 93821 93787 93763 93767 93804 93856 93882 93843 93718 93512 93241
1644.5002 92920 92563 92194 91871 91691 91733 91975 92321 92682 93009 93286
1649.8035 93513 93695 93841 93957 94050 94157 94387 94815 95197 95388 95476
1655.1068 95523 95552 95571 95584 95601 95630 95678 95749 95835 95923 95998
1660.4100 96054 96091 96114 96137 96175 96237 96320 96408 96487 96547 96581
1665.7134 96583 96559 96516 96470 96432 96404 96377 96326 96239 96127 96017
1671.0166 95937 95901 95907 95935 95962 95965 95929 95843 95716 95592 95512
1676.3199 95472 95443 95409 95366 95318 95273 95238 95216 95201 95188 95172
1681.6232 95156 95140 95126 95112 95089 95046 94998 94966 94951 94946 94945
1686.9265 94947 94949 94948 94941 94926 94907 94892 94887 94894 94909 94925
1692.2297 94935 94934 94922 94898 94866 94831 94806 94813 94856 94903 94926
1697.5331 94922 94896 94852 94799 94763 94799 94911 94991 95001 94970 94921
1702.8363 94861 94794 94717 94634 94554 94493 94473 94497 94550 94607 94649
1708.1396 94673 94683 94687 94687 94677 94651 94607 94555 94504 94463 94433
1713.4429 94408 94381 94349 94316 94293 94289 94311 94365 94458 94581 94692
1718.7462 94763 94802 94826 94843 94855 94862 94863 94860 94857 94854 94847
1724.0494 94830 94799 94757 94717 94695 94702 94736 94785 94830 94859 94870
1729.3528 94868 94865 94861 94850 94825 94784 94738 94704 94711 94761 94786
1734.6560 94721 94595 94460 94346 94261 94203 94160 94119 94071 94023 94000
1739.9594 94024 94089 94169 94242 94294 94318 94306 94259 94190 94118 94059
1745.2626 94016 93985 93960 93937 93912 93886 93860 93833 93806 93781 93766
1750.5659 93777 93821 93887 93945 93972 93964 93927 93875 93820 93775 93749
1755.8691 93745 93757 93778 93798 93812 93820 93822 93818 93808 93796 93788
1761.1725 93796 93822 93853 93866 93848 93804 93745 93688 93644 93619 93608
1766.4757 93608 93613 93628 93655 93689 93716 93726 93715 93690 93662 93652
1771.7791 93681 93742 93798 93818 93804 93769 93725 93683 93650 93627 93612
1777.0823 93600 93590 93581 93576 93573 93571 93563 93545 93519 93490 93465
1782.3856 93446 93435 93431 93436 93452 93480 93515 93554 93588 93615 93630
1787.6888 93633 93624 93604 93574 93537 93496 93457 93429 93428 93462 93518
1792.9922 93572 93604 93613 93606 93594 93585 93583 93588 93599 93610 93616
1798.2954 93611 93591 93560 93529 93518 93539 93588 93648 93697 93719 93718
1803.5988 93707 93703 93715 93736 93756 93758 93736 93691 93635 93583 93547
1808.9020 93530 93531 93540 93547 93544 93532 93516 93503 93496 93494 93497
1814.2053 93507 93526 93557 93593 93621 93630 93613 93582 93558 93563 93605
1819.5085 93675 93753 93815 93843 93829 93783 93723 93669 93635 93630 93655
1824.8119 93703 93757 93798 93822 93830 93829 93825 93822 93824 93835 93848
1830.1151 93846 93817 93762 93698 93647 93634 93675 93769 93887 93985 94023
1835.4185 93987 93890 93771 93676 93638 93659 93707 93742 93735 93680 93596
1840.7217 93510 93448 93414 93398 93377 93335 93273 93216 93199 93229 93284
1846.0250 93342 93387 93412 93418 93419 93429 93459 93502 93538 93544 93503
1851.3282 93422 93329 93260 93240 93263 93305 93332 93324 93283 93232 93195
1856.6316 93188 93206 93230 93241 93229 93198 93167 93153 93167 93205 93249
1861.9348 93278 93277 93251 93224 93221 93253 93305 93342 93327 93249 93128
1867.2382 93013 92959 92992 93096 93218 93306 93345 93345 93319 93274 93216
1872.5414 93152 93101 93082 93104 93160 93226 93275 93286 93253 93182 93092
1877.8447 93002 92929 92882 92861 92859 92865 92866 92858 92841 92817 92790
1883.1479 92758 92723 92687 92659 92648 92661 92694 92733 92762 92769 92751
1888.4513 92718 92689 92685 92719 92788 92879 92976 93065 93129 93159 93157
1893.7545 93139 93131 93151 93197 93250 93287 93296 93283 93260 93238 93216
1899.0579 93186 93141 93083 93027 92992 92997 93043 93109 93157 93147 93062
1904.3611 92922 92780 92695 92701 92791 92922 93042 93117 93138 93116 93058
1909.6644 92963 92828 92664 92502 92379 92322 92339 92417 92525 92626 92684
1914.9677 92683 92626 92540 92465 92437 92468 92537 92597 92617 92601 92573
1920.2710 92549 92530 92505 92473 92452 92471 92550 92670 92791 92880 92928
1925.5742 92952 92970 92989 92996 92974 92916 92842 92787 92778 92821 92896
1930.8776 92978 93050 93112 93172 93232 93284 93315 93320 93304 93277 93236
1936.1808 93171 93067 92928 92784 92682 92655 92702 92788 92869 92920 92958
1941.4841 93020 93132 93269 93355 93325 93174 92955 92743 92598 92529 92495
1946.7874 92438 92327 92191 92100 92126 92297 92584 92912 93198 93370 93391
1952.0907 93254 92991 92673 92403 92284 92372 92635 92945 93139 93097 92811
1957.3939 92381 91961 91679 91584 91644 91788 91959 92146 92365 92626 92899
1962.6973 93122 93230 93201 93081 92958 92918 93000 93174 93365 93500 93562
