##TITLE= INC392
##JCAMP-DX= 4.24
##DATA TYPE= INFRARED SPECTRUM
##ORIGIN= JASCO
##OWNER= 
##DATE= 22/04/13
##TIME= 15:27:14
##SPECTROMETER/DATA SYSTEM= 
##RESOLUTION= 
##DELTAX=   0.48211674
##XUNITS= 1/CM
##YUNITS= TRANSMITTANCE
##XFACTOR= 1.00000
##YFACTOR= 1E-005
##FIRSTX=   599.7532
##LASTX=  4000.1226
##NPOINTS=     7054
##FIRSTY=      0.68410
##MAXY=      0.99931
##MINY=      0.56138
##XYDATA= (X++(Y..Y))
599.7532 68410 68741 69079 69504 70009 70509 70903 71157 71337 71564 71933
605.0565 72449 73023 73525 73850 73966 73903 73716 73461 73179 72916 72717
610.3598 72619 72626 72705 72792 72829 72796 72715 72636 72595 72582 72541
615.6631 72408 72149 71792 71415 71103 70898 70785 70730 70713 70741 70837
620.9664 70999 71198 71388 71541 71666 71807 72013 72325 72755 73296 73919
626.2697 74576 75206 75740 76128 76356 76455 76501 76589 76802 77190 77750
631.5729 78429 79148 79825 80401 80860 81215 81487 81688 81815 81875 81900
636.8762 81946 82060 82242 82432 82533 82487 82333 82218 82335 82810 83609
642.1795 84520 85238 85515 85287 84701 84024 83487 83190 83098 83121 83201
647.4828 83357 83659 84159 84833 85556 86142 86402 86218 85598 84698 83790
652.7861 83160 82979 83224 83685 84082 84228 84139 83994 83996 84221 84569
658.0894 84841 84875 84670 84392 84266 84437 84873 85375 85677 85593 85122
663.3926 84452 83863 83572 83623 83901 84202 84290 83874 82580 80298 78417
668.6959 78856 80677 82329 83384 83880 83940 83722 83419 83201 83126 83088
673.9992 82861 82222 81091 79603 78067 76831 76122 75943 76068 76140 75850
679.3025 75124 74162 73290 72743 72539 72505 72426 72203 71936 71862 72206
684.6058 73035 74227 75530 76701 77627 78369 79092 79951 80992 82124 83163
689.9091 83930 84357 84535 84671 84984 85615 86566 87696 88761 89496 89716
695.2123 89402 88717 87949 87417 87358 87843 88737 89731 90464 90666 90274
700.5156 89436 88413 87450 86676 86102 85672 85348 85130 85025 85005 84986
705.8189 84879 84639 84295 83919 83574 83280 83021 82781 82568 82398 82273
711.1222 82165 82031 81854 81663 81519 81466 81490 81526 81491 81344 81113
716.4255 80874 80698 80605 80551 80457 80260 79954 79597 79278 79056 78917
721.7288 78793 78610 78333 77984 77627 77326 77111 76969 76858 76744 76618
727.0320 76499 76410 76354 76304 76209 76021 75726 75349 74948 74585 74300
732.3353 74100 73961 73847 73720 73553 73328 73034 72669 72234 71739 71200
737.6386 70638 70087 69582 69146 68785 68473 68160 67798 67358 66845 66300
742.9419 65770 65281 64830 64381 63887 63312 62651 61936 61226 60596 60128
748.2452 59893 59951 60330 61024 61994 63182 64537 66028 67635 69335 71081
753.5485 72801 74412 75843 77056 78055 78869 79542 80106 80578 80961 81242
758.8517 81411 81460 81395 81231 80995 80716 80417 80117 79821 79528 79233
764.1550 78933 78624 78303 77968 77615 77239 76838 76412 75961 75492 75016
769.4583 74542 74082 73647 73256 72927 72676 72496 72361 72225 72045 71797
774.7616 71483 71121 70729 70314 69879 69431 68992 68592 68253 67979 67743
780.0649 67509 67238 66913 66537 66128 65714 65317 64954 64630 64341 64075
785.3682 63814 63543 63258 62964 62674 62400 62146 61902 61657 61406 61154
790.6714 60916 60701 60510 60336 60177 60041 59949 59923 59968 60067 60188
795.9747 60302 60404 60518 60685 60939 61288 61705 62135 62532 62879 63200
801.2780 63543 63947 64414 64904 65361 65743 66052 66326 66618 66972 67402
806.5813 67901 68449 69024 69608 70182 70728 71229 71672 72053 72379 72671
811.8846 72957 73269 73630 74037 74467 74881 75249 75564 75842 76115 76414
817.1879 76753 77129 77524 77910 78260 78556 78801 79020 79247 79511 79822
822.4911 80167 80514 80831 81092 81284 81407 81473 81509 81550 81629 81759
827.7944 81929 82102 82235 82299 82295 82244 82181 82126 82083 82036 81962
833.0977 81844 81678 81478 81269 81081 80940 80857 80826 80824 80824 80810
838.4010 80787 80774 80791 80842 80906 80950 80947 80899 80836 80802 80834
843.7043 80939 81090 81237 81334 81353 81297 81189 81065 80952 80867 80812
849.0076 80785 80772 80758 80720 80635 80494 80310 80120 79972 79899 79898
854.3109 79927 79921 79825 79611 79294 78911 78502 78094 77689 77275 76837
859.6141 76358 75831 75251 74612 73907 73127 72266 71319 70286 69172 67980
864.9174 66717 65386 64001 62587 61187 59861 58670 57668 56892 56371 56138
870.2207 56235 56707 57585 58862 60486 62375 64437 66590 68770 70917 72973
875.5240 74871 76555 77996 79196 80184 80997 81665 82212 82663 83048 83399
880.8273 83737 84060 84339 84536 84624 84608 84526 84430 84364 84348 84370
886.1306 84405 84427 84421 84388 84336 84276 84214 84157 84108 84076 84064
891.4338 84073 84102 84148 84210 84293 84395 84515 84646 84782 84921 85060
896.7371 85190 85290 85340 85328 85264 85182 85121 85104 85127 85163 85174
902.0404 85133 85033 84875 84660 84380 84029 83608 83141 82669 82241 81899
907.3437 81664 81533 81482 81470 81456 81416 81347 81266 81203 81175 81185
912.6470 81216 81244 81249 81220 81155 81054 80921 80763 80598 80450 80338
917.9503 80265 80213 80146 80028 79833 79558 79216 78831 78430 78032 77646
923.2535 77269 76897 76534 76197 75924 75756 75728 75859 76141 76552 77057
928.5568 77617 78190 78734 79214 79606 79900 80106 80242 80331 80389 80430
933.8601 80454 80459 80436 80381 80294 80178 80043 79898 79751 79610 79481
939.1634 79369 79269 79165 79039 78881 78700 78521 78373 78270 78198 78129
944.4667 78030 77888 77712 77524 77344 77178 77023 76866 76700 76521 76332
949.7700 76131 75917 75683 75421 75125 74788 74403 73969 73490 72980 72453
955.0732 71925 71410 70915 70450 70025 69650 69334 69081 68891 68771 68739
960.3765 68825 69061 69466 70037 70747 71554 72412 73276 74102 74843 75457
965.6798 75913 76199 76324 76309 76178 75949 75636 75261 74857 74473 74165
970.9831 73978 73941 74060 74326 74715 75203 75757 76342 76915 77429 77838
976.2864 78112 78241 78241 78141 77970 77747 77476 77146 76749 76283 75757
981.5897 75188 74595 73995 73393 72793 72191 71579 70950 70296 69613 68907
986.8929 68192 67496 66856 66318 65932 65752 65826 66188 66841 67752 68848
992.1962 70038 71228 72345 73343 74196 74888 75405 75734 75876 75850 75696
997.4995 75462 75194 74924 74668 74422 74175 73909 73609 73271 72901 72516
1002.8028 72134 71767 71417 71079 70752 70434 70129 69837 69555 69281 69019
1008.1061 68785 68610 68520 68533 68637 68797 68960 69073 69102 69042 68916
1013.4094 68760 68614 68498 68419 68369 68341 68340 68385 68499 68701 68997
1018.7126 69375 69820 70323 70892 71549 72321 73222 74248 75371 76555 77770
1024.0160 78998 80230 81453 82642 83758 84761 85624 86340 86915 87359 87672
1029.3192 87851 87896 87822 87660 87456 87254 87091 86993 86981 87070 87267
1034.6226 87572 87968 88434 88947 89486 90035 90578 91094 91561 91962 92294
1039.9258 92570 92815 93053 93293 93527 93734 93895 94000 94047 94046 94005
1045.2291 93931 93829 93704 93561 93405 93237 93058 92868 92670 92470 92281
1050.5323 92115 91982 91880 91801 91725 91638 91533 91414 91291 91173 91060
1055.8357 90946 90827 90711 90614 90551 90526 90529 90547 90569 90596 90639
1061.1389 90702 90775 90828 90826 90738 90556 90295 89984 89661 89357 89090
1066.4423 88864 88672 88504 88349 88205 88073 87955 87849 87745 87626 87479
1071.7455 87297 87089 86869 86657 86461 86279 86098 85902 85682 85439 85182
1077.0488 84919 84651 84366 84049 83685 83264 82788 82264 81698 81094 80453
1082.3521 79774 79060 78319 77566 76817 76085 75375 74687 74024 73398 72840
1087.6554 72398 72132 72105 72374 72979 73942 75248 76844 78641 80527 82391
1092.9586 84148 85748 87177 88433 89505 90373 91009 91404 91578 91580 91471
1098.2620 91310 91142 90994 90882 90808 90765 90731 90677 90582 90446 90291
1103.5652 90153 90060 90019 90007 89987 89925 89804 89630 89422 89206 89001
1108.8685 88819 88664 88532 88417 88312 88216 88132 88064 88014 87976 87939
1114.1718 87887 87803 87679 87512 87311 87096 86894 86735 86636 86596 86598
1119.4751 86613 86619 86608 86587 86570 86566 86573 86588 86604 86624 86649
1124.7783 86676 86689 86661 86572 86416 86213 85996 85798 85637 85512 85409
1130.0817 85318 85238 85177 85141 85129 85124 85103 85047 84955 84837 84716
1135.3849 84612 84536 84482 84436 84379 84295 84182 84049 83913 83791 83692
1140.6882 83615 83555 83504 83458 83417 83382 83353 83328 83302 83275 83246
1145.9915 83220 83199 83181 83156 83108 83026 82908 82768 82625 82502 82409
1151.2948 82347 82308 82284 82266 82253 82238 82216 82174 82105 82005 81875
1156.5980 81723 81557 81386 81217 81054 80903 80765 80645 80544 80461 80390
1161.9014 80319 80239 80147 80050 79960 79891 79845 79813 79778 79729 79663
1167.2046 79592 79533 79495 79480 79475 79463 79432 79374 79291 79189 79078
1172.5079 78964 78852 78743 78640 78546 78464 78395 78333 78269 78190 78088
1177.8112 77961 77817 77669 77528 77401 77285 77175 77060 76936 76802 76660
1183.1145 76519 76386 76266 76159 76059 75955 75837 75698 75537 75361 75178
1188.4177 74996 74819 74644 74471 74298 74129 73966 73813 73668 73527 73385
1193.7211 73237 73084 72928 72776 72637 72512 72403 72303 72204 72104 72006
1199.0243 71916 71834 71747 71632 71463 71226 70925 70581 70220 69859 69505
1204.3276 69154 68799 68437 68064 67682 67289 66893 66501 66125 65774 65447
1209.6309 65135 64827 64513 64195 63881 63585 63317 63090 62915 62811 62808
1214.9342 62947 63271 63824 64636 65718 67062 68633 70377 72225 74101 75935
1220.2374 77664 79242 80638 81838 82841 83656 84302 84800 85178 85463 85681
1225.5408 85852 85989 86099 86184 86243 86276 86277 86238 86150 86008 85816
1230.8440 85585 85331 85072 84821 84587 84374 84181 84002 83825 83638 83429
1236.1473 83195 82942 82682 82424 82175 81938 81713 81503 81310 81138 80991
1241.4506 80864 80747 80626 80483 80304 80083 79823 79531 79218 78887 78537
1246.7539 78162 77758 77332 76894 76463 76052 75668 75310 74976 74661 74360
1252.0571 74069 73784 73499 73213 72929 72651 72384 72132 71895 71672 71462
1257.3605 71271 71100 70952 70820 70693 70556 70402 70229 70048 69867 69692
1262.6637 69513 69316 69083 68804 68479 68122 67749 67369 66986 66593 66182
1267.9670 65752 65310 64878 64474 64115 63809 63554 63342 63164 63015 62898
1273.2703 62823 62805 62852 62967 63141 63365 63628 63928 64269 64654 65083
1278.5736 65550 66047 66573 67129 67726 68370 69066 69808 70589 71398 72224
1283.8768 73061 73902 74741 75578 76414 77251 78093 78938 79783 80622 81448
1289.1802 82257 83038 83780 84472 85104 85670 86168 86594 86942 87206 87385
1294.4834 87485 87521 87511 87475 87427 87385 87359 87360 87394 87461 87558
1299.7867 87680 87823 87988 88175 88383 88607 88840 89076 89312 89544 89767
1305.0900 89970 90143 90277 90374 90444 90503 90568 90650 90751 90865 90980
1310.3933 91084 91167 91218 91232 91206 91142 91046 90924 90786 90643 90500
1315.6965 90362 90226 90090 89950 89806 89665 89537 89425 89329 89235 89130
1320.9999 89006 88860 88699 88530 88361 88193 88022 87845 87663 87478 87298
1326.3031 87130 86978 86846 86736 86652 86602 86597 86648 86759 86929 87149
1331.6064 87409 87696 88001 88314 88625 88927 89213 89484 89744 89996 90243
1336.9097 90479 90699 90895 91064 91205 91314 91382 91404 91382 91327 91258
1342.2130 91192 91137 91096 91056 91003 90924 90815 90684 90544 90407 90283
1347.5162 90176 90089 90026 89991 89982 89993 90016 90042 90072 90111 90165
1352.8196 90234 90311 90382 90435 90464 90470 90463 90450 90437 90424 90409
1358.1228 90392 90368 90331 90273 90186 90072 89939 89804 89685 89598 89549
1363.4261 89529 89520 89503 89462 89390 89284 89148 88997 88849 88721 88623
1368.7294 88552 88492 88424 88334 88212 88060 87880 87674 87437 87160 86832
1374.0327 86460 86065 85675 85306 84950 84592 84221 83836 83449 83079 82736
1379.3359 82423 82132 81858 81598 81361 81155 80988 80860 80772 80718 80691
1384.6393 80685 80694 80713 80749 80815 80923 81067 81220 81356 81465 81554
1389.9425 81634 81714 81793 81861 81910 81935 81940 81934 81922 81907 81890
1395.2458 81868 81842 81812 81780 81746 81715 81696 81700 81734 81786 81838
1400.5491 81874 81885 81870 81833 81777 81706 81623 81531 81434 81335 81237
1405.8524 81139 81030 80897 80732 80533 80307 80068 79832 79608 79397 79196
1411.1556 79003 78820 78651 78502 78383 78303 78274 78312 78435 78650 78944
1416.4590 79281 79625 79964 80332 80806 81444 82173 82804 83234 83494 83655
1421.7622 83772 83871 83954 84012 84029 84003 83953 83903 83874 83883 83937
1427.0656 84038 84184 84379 84633 84962 85369 85819 86256 86640 86974 87287
1432.3688 87604 87925 88222 88464 88639 88756 88833 88885 88910 88897 88844
1437.6721 88769 88683 88587 88477 88349 88205 88046 87877 87696 87498 87279
1442.9753 87032 86753 86441 86104 85757 85415 85086 84765 84438 84095 83748
1448.2787 83431 83170 82967 82807 82678 82577 82516 82507 82555 82649 82766
1453.5819 82884 82988 83069 83124 83153 83152 83116 83039 82926 82797 82674
1458.8853 82573 82510 82502 82570 82727 82970 83276 83607 83930 84232 84520
1464.1885 84804 85070 85273 85377 85387 85329 85222 85078 84899 84689 84451
1469.4918 84190 83906 83597 83255 82857 82379 81832 81297 80848 80482 80156
1474.7950 79826 79460 79048 78616 78207 77850 77537 77244 76957 76679 76430
1480.0984 76234 76109 76058 76069 76134 76254 76442 76705 77037 77420 77838
1485.4016 78292 78807 79399 80045 80661 81163 81533 81827 82142 82550 83023
1490.7050 83448 83747 83939 84077 84194 84300 84387 84448 84487 84527 84593
1496.0082 84700 84827 84940 85028 85097 85159 85209 85233 85224 85189 85143
1501.3115 85103 85079 85072 85070 85061 85037 84996 84942 84892 84889 84996
1506.6147 85202 85363 85398 85340 85240 85130 85026 84931 84836 84731 84606
1511.9181 84463 84315 84178 84058 83950 83846 83740 83633 83529 83436 83353
1517.2213 83267 83164 83039 82890 82717 82519 82304 82096 81939 81842 81747
1522.5247 81612 81443 81257 81069 80888 80721 80573 80445 80331 80223 80112
1527.8279 79995 79873 79750 79628 79502 79367 79224 79075 78929 78794 78679
1533.1312 78581 78488 78381 78254 78109 77949 77777 77598 77417 77241 77080
1538.4344 76961 76929 77014 77149 77241 77275 77281 77276 77266 77254 77256
1543.7378 77302 77437 77703 78094 78547 78989 79389 79765 80151 80594 81156
1549.0410 81905 82877 83994 85075 85971 86657 87194 87673 88199 88870 89714
1554.3444 90584 91260 91671 91893 92026 92144 92306 92586 93079 93756 94267
1559.6476 94479 94585 94685 94790 94894 94995 95095 95196 95295 95386 95465
1564.9509 95536 95610 95698 95800 95910 96018 96118 96204 96281 96365 96472
1570.2542 96597 96723 96836 96930 97001 97046 97069 97076 97074 97067 97053
1575.5575 97022 96967 96894 96817 96737 96647 96549 96449 96365 96316 96311
1580.8607 96344 96397 96455 96511 96569 96637 96715 96798 96876 96941 96996
1586.1641 97051 97117 97202 97304 97420 97541 97663 97781 97893 97995 98086
1591.4674 98164 98230 98280 98309 98310 98279 98219 98141 98062 97995 97946
1596.7706 97917 97906 97910 97925 97947 97973 98000 98029 98063 98106 98159
1602.0740 98221 98292 98373 98465 98567 98670 98762 98825 98849 98832 98782
1607.3772 98714 98639 98553 98445 98310 98153 97994 97855 97745 97662 97596
1612.6805 97542 97501 97477 97471 97471 97454 97380 97208 96957 96741 96637
1617.9838 96613 96605 96568 96485 96356 96199 96031 95847 95604 95216 94592
1623.2871 93745 92864 92153 91666 91351 91161 91089 91172 91457 91947 92554
1628.5903 93153 93668 94089 94437 94725 94957 95128 95242 95311 95350 95371
1633.8937 95373 95346 95276 95166 95058 94982 94928 94875 94815 94751 94688
1639.1969 94629 94565 94489 94390 94273 94157 94067 94026 94042 94105 94200
1644.5002 94310 94419 94514 94590 94665 94778 94946 95147 95343 95509 95640
1649.8035 95744 95834 95925 96030 96165 96347 96568 96732 96785 96827 96906
1655.1068 97015 97145 97290 97442 97592 97734 97866 97993 98125 98268 98421
1660.4100 98576 98722 98848 98949 99032 99112 99206 99313 99424 99528 99620
1665.7134 99699 99772 99843 99904 99931 99874 99680 99358 98998 98687 98436
1671.0166 98210 97985 97768 97580 97427 97297 97158 96966 96693 96377 96108
1676.3199 95923 95794 95684 95572 95451 95319 95179 95040 94914 94806 94715
1681.6232 94634 94552 94459 94342 94196 94057 93984 93957 93922 93859 93771
1686.9265 93664 93551 93448 93378 93351 93357 93373 93376 93359 93326 93286
1692.2297 93248 93213 93180 93149 93121 93101 93093 93086 93059 93005 92941
1697.5331 92881 92829 92788 92758 92742 92742 92749 92750 92746 92744 92744
1702.8363 92743 92742 92742 92747 92766 92806 92860 92911 92937 92928 92885
1708.1396 92810 92706 92569 92398 92197 91977 91752 91531 91315 91105 90904
1713.4429 90721 90568 90453 90365 90289 90219 90171 90189 90333 90603 90876
1718.7462 91025 91049 91004 90928 90840 90741 90630 90499 90342 90157 89944
1724.0494 89709 89461 89204 88940 88671 88402 88142 87899 87675 87468 87272
1729.3528 87084 86908 86755 86626 86519 86428 86359 86342 86452 86771 87220
1734.6560 87582 87796 87937 88069 88216 88379 88550 88725 88916 89135 89375
1739.9594 89590 89732 89796 89809 89801 89800 89823 89872 89927 89961 89958
1745.2626 89918 89851 89776 89709 89663 89636 89610 89566 89496 89408 89320
1750.5659 89250 89214 89211 89224 89232 89222 89189 89131 89052 88963 88880
1755.8691 88826 88816 88847 88889 88914 88907 88873 88828 88785 88763 88776
1761.1725 88833 88915 88987 89018 89006 88970 88924 88882 88849 88824 88806
1766.4757 88795 88789 88786 88779 88755 88711 88653 88596 88558 88565 88643
1771.7791 88787 88929 88990 88960 88881 88794 88720 88672 88651 88650 88655
1777.0823 88655 88641 88612 88572 88529 88497 88493 88523 88575 88626 88653
1782.3856 88650 88625 88591 88565 88555 88556 88555 88541 88513 88480 88452
1787.6888 88434 88424 88416 88399 88373 88341 88314 88307 88330 88376 88421
1792.9922 88440 88432 88409 88384 88368 88362 88361 88355 88340 88318 88297
1798.2954 88281 88270 88255 88225 88173 88109 88050 88011 87999 88009 88027
1803.5988 88038 88030 87999 87948 87884 87817 87762 87730 87722 87730 87739
1808.9020 87736 87715 87681 87645 87620 87604 87589 87559 87505 87426 87330
1814.2053 87230 87136 87052 86977 86908 86843 86784 86735 86695 86661 86622
1819.5085 86569 86497 86411 86321 86240 86175 86127 86091 86061 86036 86017
1824.8119 86006 85995 85977 85949 85919 85899 85904 85946 86027 86135 86233
1830.1151 86287 86298 86294 86301 86332 86391 86470 86559 86644 86719 86786
1835.4185 86856 86944 87060 87202 87356 87495 87598 87654 87667 87653 87629
1840.7217 87614 87613 87628 87655 87696 87762 87864 87995 88120 88209 88257
1846.0250 88277 88282 88281 88273 88255 88232 88213 88214 88245 88305 88378
1851.3282 88439 88463 88441 88384 88319 88277 88274 88309 88363 88409 88427
1856.6316 88407 88353 88278 88200 88136 88099 88095 88122 88166 88212 88244
1861.9348 88259 88261 88260 88260 88258 88246 88220 88184 88151 88133 88133
1867.2382 88144 88148 88130 88082 88015 87950 87910 87904 87925 87958 87980
1872.5414 87968 87916 87845 87788 87775 87809 87863 87895 87878 87812 87727
1877.8447 87660 87635 87657 87710 87775 87829 87852 87826 87740 87602 87439
1883.1479 87290 87186 87131 87106 87079 87036 86988 86965 86991 87064 87157
1888.4513 87220 87204 87090 86909 86720 86574 86494 86479 86520 86603 86709
1893.7545 86817 86905 86959 86975 86961 86933 86903 86880 86863 86851 86835
1899.0579 86812 86780 86744 86719 86720 86755 86819 86890 86937 86937 86884
1904.3611 86791 86685 86593 86537 86530 86578 86680 86819 86965 87073 87105
1909.6644 87045 86911 86743 86578 86440 86329 86243 86184 86162 86182 86234
1914.9677 86286 86301 86257 86158 86032 85917 85833 85760 85651 85469 85212
1920.2710 84918 84647 84469 84440 84574 84821 85086 85288 85400 85441 85444
1925.5742 85428 85388 85306 85171 84991 84788 84590 84412 84263 84149 84084
1930.8776 84096 84209 84434 84757 85141 85532 85881 86152 86331 86424 86454
1936.1808 86451 86445 86449 86461 86472 86472 86461 86447 86437 86425 86401
1941.4841 86361 86324 86331 86415 86573 86767 86950 87091 87187 87253 87310
1946.7874 87362 87399 87409 87400 87406 87463 87588 87760 87928 88044 88087
1952.0907 88073 88039 88025 88052 88130 88260 88440 88664 88917 89175 89415
1957.3939 89625 89797 89914 89940 89832 89573 89208 88849 88634 88652 88884
1962.6973 89204 89447 89498 89361 89147 89015 89087 89385 89829 90271 90571
