##TITLE= STDSULFAGUANIDINA
##JCAMP-DX= 4.24
##DATA TYPE= INFRARED SPECTRUM
##ORIGIN= JASCO
##OWNER= 
##DATE= 22/03/31
##TIME= 08:43:31
##SPECTROMETER/DATA SYSTEM= 
##RESOLUTION= 
##DELTAX=   0.48211674
##XUNITS= 1/CM
##YUNITS= TRANSMITTANCE
##XFACTOR= 1.00000
##YFACTOR= 1E-005
##FIRSTX=   599.7532
##LASTX=  4000.1226
##NPOINTS=     7054
##FIRSTY=      0.54346
##MAXY=      0.97979
##MINY=      0.54346
##XYDATA= (X++(Y..Y))
599.7532 54346 54385 54505 54676 54855 55020 55179 55356 55572 55827 56102
605.0565 56373 56617 56817 56968 57074 57160 57270 57454 57744 58134 58569
610.3598 58971 59272 59441 59494 59478 59449 59447 59497 59607 59776 59992
615.6631 60224 60436 60594 60695 60779 60909 61141 61493 61931 62389 62794
620.9664 63095 63287 63418 63572 63830 64238 64792 65430 66065 66612 67028
626.2697 67323 67544 67750 67983 68269 68611 69002 69415 69811 70137 70339
631.5729 70388 70300 70141 70013 70009 70181 70514 70943 71387 71791 72145
636.8762 72460 72736 72945 73040 73000 72860 72703 72616 72636 72735 72849
642.1795 72924 72946 72939 72923 72890 72804 72636 72404 72181 72067 72135
647.4828 72384 72720 72987 73033 72793 72325 71780 71325 71069 71027 71126
652.7861 71257 71330 71323 71278 71259 71312 71428 71553 71610 71541 71326
658.0894 70993 70608 70255 70009 69911 69963 70131 70355 70573 70730 70794
663.3926 70754 70618 70411 70169 69922 69691 69487 69320 69212 69213 69338
668.6959 69478 69568 69655 69789 69977 70197 70393 70496 70455 70265 69968
673.9992 69632 69329 69119 69037 69086 69228 69404 69551 69629 69636 69599
679.3025 69562 69563 69626 69753 69918 70059 70094 69955 69641 69243 68924
684.6058 68836 69035 69434 69853 70123 70188 70135 70128 70300 70671 71151
689.9091 71615 71983 72262 72510 72780 73086 73418 73767 74146 74577 75061
695.2123 75566 76044 76470 76863 77270 77727 78227 78718 79140 79465 79706
700.5156 79896 80055 80175 80230 80213 80155 80123 80184 80369 80655 80981
705.8189 81275 81492 81620 81674 81678 81647 81591 81525 81476 81482 81573
711.1222 81750 81979 82198 82351 82416 82419 82428 82513 82715 83024 83385
716.4255 83719 83958 84077 84102 84097 84137 84278 84537 84882 85244 85555
721.7288 85772 85889 85926 85916 85894 85888 85915 85976 86057 86136 86192
727.0320 86213 86195 86146 86087 86043 86040 86094 86198 86328 86452 86545
732.3353 86604 86648 86704 86783 86879 86968 87029 87059 87078 87112 87182
737.6386 87285 87405 87518 87613 87692 87766 87842 87913 87962 87970 87933
742.9419 87865 87792 87745 87739 87766 87799 87800 87742 87622 87462 87301
748.2452 87176 87102 87069 87049 87019 86973 86926 86898 86904 86939 86985
753.5485 87028 87062 87090 87114 87127 87124 87104 87085 87092 87139 87215
758.8517 87279 87284 87203 87047 86863 86715 86662 86733 86916 87159 87387
764.1550 87526 87534 87413 87203 86962 86739 86558 86424 86327 86261 86218
769.4583 86187 86149 86084 85983 85854 85714 85576 85443 85308 85170 85041
774.7616 84940 84876 84841 84800 84718 84574 84376 84160 83969 83840 83788
780.0649 83804 83854 83893 83873 83765 83570 83318 83062 82852 82720 82666
785.3682 82665 82677 82658 82574 82406 82159 81856 81538 81243 81000 80813
790.6714 80662 80522 80373 80212 80050 79898 79757 79614 79453 79267 79057
795.9747 78838 78619 78406 78194 77972 77733 77470 77184 76883 76582 76299
801.2780 76046 75819 75599 75354 75062 74719 74342 73958 73585 73226 72871
806.5813 72505 72120 71716 71305 70906 70542 70233 69988 69793 69617 69420
811.8846 69177 68891 68588 68304 68064 67871 67710 67561 67412 67267 67136
817.1879 67025 66926 66811 66646 66406 66095 65765 65503 65411 65566 65994
822.4911 66658 67472 68332 69148 69865 70465 70958 71368 71709 71977 72154
827.7944 72221 72184 72084 72002 72034 72266 72748 73487 74444 75550 76715
833.0977 77843 78848 79670 80290 80730 81041 81291 81535 81811 82137 82512
838.4010 82925 83353 83765 84127 84400 84560 84595 84511 84324 84059 83743
843.7043 83410 83100 82864 82753 82810 83058 83494 84091 84805 85595 86425
849.0076 87266 88093 88877 89589 90202 90707 91108 91421 91669 91872 92055
854.3109 92241 92450 92686 92927 93128 93250 93279 93240 93188 93179 93235
859.6141 93344 93461 93542 93561 93518 93431 93325 93224 93150 93122 93148
864.9174 93217 93301 93364 93379 93347 93297 93271 93295 93368 93455 93509
870.2207 93498 93424 93313 93202 93117 93060 93021 92989 92960 92937 92921
875.5240 92905 92881 92848 92814 92795 92802 92826 92849 92849 92819 92771
880.8273 92730 92716 92734 92775 92818 92847 92852 92836 92803 92759 92701
886.1306 92623 92520 92394 92258 92137 92055 92027 92049 92099 92147 92172
891.4338 92167 92145 92124 92121 92139 92169 92202 92228 92242 92236 92203
896.7371 92132 92022 91881 91732 91605 91528 91514 91555 91622 91673 91671
902.0404 91596 91465 91318 91205 91160 91181 91237 91281 91284 91241 91175
907.3437 91111 91060 91016 90961 90886 90795 90710 90652 90628 90629 90635
912.6470 90624 90588 90530 90465 90410 90374 90357 90349 90339 90320 90292
917.9503 90259 90223 90183 90134 90073 90004 89941 89900 89888 89901 89921
923.2535 89927 89902 89843 89760 89670 89592 89540 89519 89520 89526 89518
928.5568 89479 89410 89328 89260 89229 89243 89288 89334 89355 89335 89279
933.8601 89204 89130 89071 89025 88983 88932 88862 88771 88662 88544 88425
939.1634 88308 88193 88079 87971 87883 87840 87863 87961 88121 88308 88477
944.4667 88588 88623 88585 88498 88388 88278 88183 88107 88054 88022 88009
949.7700 88006 88004 87994 87973 87943 87909 87875 87845 87823 87814 87820
955.0732 87837 87853 87846 87801 87716 87601 87476 87360 87258 87168 87084
960.3765 87005 86933 86865 86795 86704 86576 86401 86189 85964 85765 85632
965.6798 85596 85669 85841 86072 86309 86494 86589 86586 86512 86413 86337
970.9831 86311 86338 86395 86450 86475 86458 86402 86324 86241 86167 86105
976.2864 86055 86011 85970 85930 85893 85858 85826 85795 85764 85732 85700
981.5897 85663 85618 85557 85475 85369 85243 85108 84978 84868 84793 84761
986.8929 84773 84817 84874 84920 84935 84905 84832 84725 84600 84473 84357
992.1962 84259 84180 84115 84058 84001 83938 83862 83764 83643 83499 83344
997.4995 83189 83045 82913 82791 82672 82555 82444 82341 82238 82119 81961
1002.8028 81748 81477 81147 80755 80288 79737 79126 78531 78076 77898 78090
1008.1061 78658 79506 80475 81395 82136 82640 82912 83001 82967 82869 82747
1013.4094 82629 82521 82416 82300 82161 82001 81834 81678 81546 81437 81339
1018.7126 81232 81109 80972 80835 80712 80608 80515 80418 80305 80175 80033
1024.0160 79886 79737 79583 79424 79263 79110 78975 78855 78736 78596 78423
1029.3192 78219 78005 77805 77631 77483 77347 77206 77054 76889 76717 76540
1034.6226 76358 76169 75978 75792 75616 75449 75282 75098 74883 74632 74353
1039.9258 74061 73772 73497 73238 72990 72744 72492 72229 71952 71662 71361
1045.2291 71054 70744 70438 70140 69853 69580 69328 69103 68915 68773 68685
1050.5323 68657 68689 68778 68914 69084 69277 69484 69704 69941 70201 70482
1055.8357 70778 71080 71374 71653 71918 72171 72419 72660 72884 73072 73210
1061.1389 73292 73326 73329 73320 73309 73293 73263 73211 73133 73027 72892
1066.4423 72724 72522 72292 72049 71809 71581 71362 71139 70899 70634 70346
1071.7455 70042 69731 69416 69101 68784 68470 68159 67855 67561 67278 67007
1077.0488 66746 66488 66228 65960 65686 65413 65150 64907 64687 64490 64321
1082.3521 64185 64092 64052 64069 64141 64267 64446 64682 64981 65346 65775
1087.6554 66259 66788 67349 67936 68542 69160 69783 70403 71016 71617 72206
1092.9586 72780 73332 73850 74323 74747 75125 75471 75797 76107 76388 76617
1098.2620 76769 76838 76831 76774 76691 76601 76503 76385 76230 76025 75770
1103.5652 75477 75165 74852 74550 74258 73966 73666 73351 73025 72694 72364
1108.8685 72031 71687 71321 70929 70510 70071 69624 69180 68752 68346 67966
1114.1718 67604 67249 66886 66506 66109 65700 65290 64887 64492 64105 63723
1119.4751 63343 62968 62602 62253 61925 61622 61343 61084 60842 60617 60416
1124.7783 60246 60117 60038 60013 60048 60150 60334 60610 60984 61448 61974
1130.0817 62525 63064 63571 64050 64526 65037 65623 66315 67132 68080 69152
1135.3849 70331 71593 72910 74255 75600 76919 78186 79374 80461 81437 82309
1140.6882 83095 83816 84482 85094 85638 86100 86473 86760 86971 87116 87206
1145.9915 87244 87235 87182 87091 86973 86841 86707 86580 86457 86332 86192
1151.2948 86031 85850 85659 85464 85268 85066 84855 84632 84405 84184 83975
1156.5980 83776 83576 83364 83135 82891 82640 82390 82147 81909 81672 81432
1161.9014 81187 80937 80684 80432 80181 79930 79675 79409 79128 78830 78521
1167.2046 78207 77900 77604 77322 77053 76791 76533 76277 76026 75784 75554
1172.5079 75339 75136 74944 74763 74598 74459 74356 74291 74262 74258 74274
1177.8112 74307 74365 74461 74604 74795 75028 75295 75590 75911 76261 76636
1183.1145 77026 77413 77778 78110 78405 78672 78923 79167 79413 79659 79902
1188.4177 80137 80357 80560 80748 80926 81099 81269 81433 81582 81706 81800
1193.7211 81865 81906 81930 81942 81942 81928 81900 81860 81811 81756 81695
1199.0243 81629 81555 81474 81388 81298 81204 81100 80981 80840 80678 80501
1204.3276 80321 80147 79983 79822 79650 79453 79227 78979 78729 78494 78279
1209.6309 78078 77871 77642 77384 77108 76833 76579 76353 76150 75954 75748
1214.9342 75522 75278 75023 74766 74517 74278 74049 73827 73610 73394 73178
1220.2374 72961 72745 72531 72323 72119 71918 71714 71510 71309 71122 70958
1225.5408 70821 70712 70624 70555 70504 70477 70480 70517 70592 70704 70851
1230.8440 71031 71241 71484 71761 72074 72428 72823 73254 73714 74193 74683
1236.1473 75182 75693 76222 76770 77335 77907 78473 79026 79568 80104 80644
1241.4506 81190 81739 82284 82820 83341 83850 84345 84827 85295 85745 86178
1246.7539 86596 87000 87394 87779 88156 88525 88880 89218 89531 89817 90077
1252.0571 90316 90543 90765 90987 91206 91421 91625 91816 91994 92157 92304
1257.3605 92432 92539 92627 92705 92781 92864 92956 93049 93131 93195 93239
1262.6637 93269 93294 93320 93353 93392 93439 93493 93555 93618 93673 93708
1267.9670 93711 93682 93628 93568 93523 93505 93521 93563 93619 93675 93721
1273.2703 93753 93772 93783 93788 93792 93795 93796 93792 93778 93749 93703
1278.5736 93642 93574 93507 93449 93402 93360 93313 93252 93173 93082 92990
1283.8768 92914 92863 92834 92815 92789 92744 92677 92598 92521 92456 92407
1289.1802 92365 92323 92273 92216 92156 92093 92024 91941 91835 91703 91546
1294.4834 91374 91193 91010 90824 90628 90415 90172 89889 89557 89168 88724
1299.7867 88239 87743 87283 86914 86682 86609 86682 86855 87065 87247 87357
1305.0900 87377 87314 87187 87023 86847 86683 86554 86480 86475 86551 86714
1310.3933 86964 87301 87721 88216 88771 89363 89966 90553 91103 91600 92036
1315.6965 92402 92695 92918 93083 93208 93312 93411 93509 93605 93689 93752
1320.9999 93789 93798 93782 93746 93700 93650 93605 93566 93530 93492 93451
1326.3031 93406 93361 93319 93283 93247 93210 93168 93123 93078 93034 92994
1331.6064 92956 92924 92900 92887 92882 92873 92850 92804 92736 92656 92574
1336.9097 92492 92406 92309 92206 92118 92084 92134 92263 92435 92602 92734
1342.2130 92821 92869 92889 92892 92888 92882 92876 92869 92856 92833 92793
1347.5162 92735 92665 92597 92548 92531 92549 92589 92629 92649 92631 92572
1352.8196 92480 92374 92278 92215 92193 92204 92227 92242 92238 92219 92195
1358.1228 92175 92158 92134 92083 91991 91851 91675 91491 91351 91309 91392
1363.4261 91573 91787 91970 92089 92137 92121 92055 91957 91847 91753 91701
1368.7294 91706 91761 91839 91903 91924 91884 91781 91619 91413 91192 91009
1374.0327 90921 90957 91086 91241 91367 91435 91448 91426 91394 91376 91380
1379.3359 91402 91428 91446 91448 91430 91398 91365 91339 91327 91317 91289
1384.6393 91220 91094 90912 90700 90515 90427 90471 90608 90762 90875 90932
1389.9425 90945 90934 90915 90891 90846 90755 90596 90365 90092 89851 89740
1395.2458 89787 89923 90046 90091 90039 89909 89752 89647 89658 89782 89956
1400.5491 90117 90228 90279 90270 90203 90082 89919 89742 89596 89527 89552
1405.8524 89640 89738 89805 89825 89799 89743 89673 89600 89531 89467 89413
1411.1556 89374 89351 89339 89323 89290 89228 89135 89012 88864 88695 88510
1416.4590 88309 88086 87832 87545 87262 87089 87134 87370 87647 87853 87946
1421.7622 87919 87782 87562 87324 87157 87118 87187 87297 87386 87423 87397
1427.0656 87311 87171 86987 86774 86564 86404 86332 86344 86398 86451 86484
1432.3688 86503 86523 86544 86548 86507 86401 86234 86063 86022 86236 86631
1437.6721 87015 87291 87468 87578 87646 87683 87691 87674 87638 87590 87539
1442.9753 87486 87432 87372 87300 87207 87084 86922 86719 86491 86287 86168
1448.2787 86165 86239 86320 86353 86318 86223 86095 85965 85847 85725 85568
1453.5819 85349 85058 84699 84282 83814 83310 82816 82458 82376 82576 82937
1458.8853 83335 83696 83983 84185 84302 84336 84292 84173 83980 83719 83412
1464.1885 83117 82934 82919 83022 83137 83200 83193 83125 83016 82880 82724
1469.4918 82538 82301 81984 81557 81013 80430 80027 79970 80148 80342 80437
1474.7950 80416 80306 80160 80044 79996 79988 79963 79878 79714 79477 79187
1480.0984 78879 78593 78359 78185 78054 77935 77796 77613 77374 77081 76739
1485.4016 76356 75932 75476 75014 74581 74191 73822 73432 73006 72601 72338
1490.7050 72273 72329 72392 72397 72330 72199 72022 71806 71553 71260 70948
1496.0082 70662 70451 70319 70241 70202 70224 70338 70560 70881 71299 71832
1501.3115 72497 73267 74050 74721 75196 75452 75505 75363 74993 74339 73482
1506.6147 72880 72867 73165 73481 73739 73935 74072 74141 74135 74056 73924
1511.9181 73772 73631 73506 73376 73205 72965 72640 72226 71748 71298 71032
1517.2213 71022 71150 71257 71261 71132 70845 70376 69773 69292 69273 69621
1522.5247 69992 70227 70322 70320 70266 70211 70193 70227 70301 70410 70565
1527.8279 70780 71051 71337 71591 71780 71893 71936 71921 71866 71813 71844
1533.1312 72073 72543 73143 73718 74195 74571 74852 75032 75094 75018 74799
1538.4344 74494 74318 74619 75396 76212 76869 77452 78046 78635 79155 79586
1543.7378 79978 80429 81022 81742 82471 83086 83544 83857 84053 84152 84184
1549.0410 84216 84356 84683 85146 85595 85919 86085 86108 86027 85915 85877
1554.3444 85984 86177 86332 86375 86279 86019 85531 84694 83468 82587 83293
1559.6476 84741 85853 86556 86993 87256 87391 87416 87340 87174 86954 86746
1564.9509 86615 86566 86541 86468 86298 86006 85575 85006 84363 83820 83534
1570.2542 83431 83309 83045 82617 82067 81476 80937 80515 80235 80115 80238
1575.5575 80789 81869 83134 84090 84644 84942 85106 85187 85196 85131 84997
1580.8607 84810 84590 84354 84111 83865 83615 83357 83085 82797 82494 82180
1586.1641 81860 81532 81192 80833 80456 80072 79698 79355 79056 78801 78582
1591.4674 78383 78186 77975 77737 77468 77172 76867 76575 76313 76084 75881
1596.7706 75694 75516 75346 75188 75044 74914 74796 74683 74565 74436 74287
1602.0740 74116 73925 73719 73499 73261 72988 72669 72296 71882 71450 71029
1607.3772 70634 70265 69910 69566 69252 68991 68799 68668 68578 68511 68467
1612.6805 68457 68484 68538 68588 68609 68598 68613 68810 69366 70198 71009
1617.9838 71655 72176 72645 73098 73529 73902 74185 74375 74516 74706 75090
1623.2871 75767 76637 77472 78138 78641 79039 79399 79788 80275 80891 81584
1628.5903 82254 82828 83295 83678 84004 84290 84535 84723 84838 84874 84827
1633.8937 84700 84509 84327 84317 84596 85066 85578 86079 86561 87016 87429
1639.1969 87790 88105 88390 88663 88936 89210 89476 89716 89911 90042 90091
1644.5002 90040 89873 89590 89259 89057 89190 89688 90377 91053 91592 91956
1649.8035 92152 92205 92134 91929 91534 90842 89941 89777 90768 91834 92587
1655.1068 93114 93507 93816 94068 94280 94466 94634 94783 94906 94988 95013
1660.4100 94972 94868 94723 94599 94588 94753 95049 95371 95646 95852 95987
1665.7134 96046 96022 95905 95690 95387 95038 94743 94620 94697 94887 95100
1671.0166 95310 95523 95725 95883 95960 95937 95815 95636 95522 95617 95907
1676.3199 96228 96462 96581 96589 96495 96319 96107 95931 95850 95858 95887
1681.6232 95853 95679 95285 94586 93648 93131 93750 94804 95569 96000 96211
1686.9265 96289 96288 96253 96224 96240 96316 96443 96597 96752 96890 96993
1692.2297 97045 97031 96938 96754 96456 96026 95494 95053 94978 95228 95531
1697.5331 95732 95804 95744 95542 95222 95018 95294 95827 96227 96446 96543
1702.8363 96557 96509 96411 96281 96149 96060 96068 96202 96440 96711 96941
1708.1396 97087 97143 97126 97077 97042 97045 97071 97077 97024 96889 96672
1713.4429 96393 96103 95870 95726 95634 95510 95293 94984 94718 94770 95247
1718.7462 95890 96430 96799 97025 97141 97173 97138 97057 96966 96902 96893
1724.0494 96941 97021 97107 97182 97242 97285 97299 97263 97157 96973 96731
1729.3528 96494 96340 96302 96328 96326 96218 95949 95490 94905 94510 94719
1734.6560 95368 95984 96400 96644 96764 96787 96723 96579 96379 96193 96120
1739.9594 96208 96379 96517 96553 96478 96323 96158 96066 96089 96189 96282
1745.2626 96304 96228 96062 95840 95622 95470 95418 95442 95491 95528 95554
1750.5659 95612 95758 96004 96296 96561 96754 96860 96877 96808 96661 96455
1755.8691 96237 96074 96034 96131 96314 96504 96642 96696 96656 96529 96345
1761.1725 96171 96098 96167 96332 96521 96689 96824 96919 96962 96937 96830
1766.4757 96643 96410 96197 96080 96080 96133 96142 96040 95799 95430 95026
1771.7791 94795 94922 95316 95722 96004 96163 96245 96301 96369 96461 96560
1777.0823 96636 96662 96625 96524 96372 96206 96083 96063 96164 96343 96526
1782.3856 96651 96691 96653 96571 96497 96476 96514 96586 96654 96699 96719
1787.6888 96718 96692 96630 96515 96333 96083 95780 95474 95255 95231 95421
1792.9922 95711 95953 96076 96085 96031 95987 96017 96131 96279 96383 96390
1798.2954 96289 96116 95940 95829 95813 95868 95958 96057 96156 96255 96348
1803.5988 96428 96492 96537 96562 96563 96539 96496 96445 96403 96376 96356
1808.9020 96329 96282 96222 96174 96168 96222 96325 96451 96570 96663 96715
1814.2053 96717 96670 96587 96487 96398 96339 96320 96339 96379 96424 96457
1819.5085 96471 96464 96441 96413 96395 96391 96392 96374 96309 96177 95993
1824.8119 95816 95727 95757 95859 95950 95967 95874 95668 95394 95161 95110
1830.1151 95288 95592 95887 96105 96240 96310 96338 96339 96322 96285 96225
1835.4185 96146 96064 96006 95997 96041 96119 96197 96245 96253 96231 96198
1840.7217 96163 96117 96033 95883 95658 95390 95174 95127 95264 95465 95611
1846.0250 95670 95678 95696 95774 95923 96097 96231 96286 96265 96200 96130
1851.3282 96083 96068 96081 96113 96157 96205 96247 96274 96273 96241 96180
1856.6316 96102 96023 95963 95939 95960 96021 96106 96192 96258 96292 96294
1861.9348 96273 96241 96207 96176 96144 96107 96053 95973 95857 95709 95540
1867.2382 95376 95253 95209 95258 95377 95509 95611 95673 95716 95767 95846
1872.5414 95954 96067 96150 96180 96154 96099 96047 96026 96039 96072 96103
1877.8447 96119 96116 96101 96081 96058 96030 95994 95948 95896 95841 95792
1883.1479 95758 95746 95759 95791 95825 95841 95823 95765 95671 95555 95441
1888.4513 95361 95353 95438 95601 95794 95969 96100 96177 96200 96167 96083
1893.7545 95963 95839 95749 95719 95745 95794 95831 95837 95820 95801 95796
1899.0579 95809 95827 95836 95835 95831 95833 95839 95835 95805 95742 95654
1904.3611 95561 95485 95440 95430 95452 95492 95534 95556 95543 95489 95409
1909.6644 95331 95285 95290 95350 95460 95613 95803 96007 96186 96282 96253
1914.9677 96098 95864 95628 95464 95420 95497 95643 95779 95854 95862 95814
1920.2710 95716 95567 95379 95190 95067 95057 95149 95272 95359 95388 95395
1925.5742 95434 95535 95680 95812 95874 95844 95751 95636 95529 95429 95323
1930.8776 95209 95112 95070 95110 95234 95419 95628 95832 96001 96106 96117
1936.1808 96031 95882 95746 95706 95805 96011 96229 96346 96289 96059 95717
1941.4841 95364 95110 95027 95110 95291 95496 95690 95861 96008 96121 96176
1946.7874 96154 96059 95918 95783 95701 95697 95755 95826 95849 95787 95648
1952.0907 95484 95359 95317 95359 95449 95537 95594 95624 95672 95789 96005
1957.3939 96294 96568 96698 96575 96180 95616 95077 94755 94751 95031 95467
1962.6973 95922 96311 96611 96814 96891 96794 96500 96069 95644 95387 95373
