##TITLE= STDACIDOBENZOICO
##JCAMP-DX= 4.24
##DATA TYPE= INFRARED SPECTRUM
##ORIGIN= JASCO
##OWNER= 
##DATE= 22/04/11
##TIME= 17:56:58
##SPECTROMETER/DATA SYSTEM= 
##RESOLUTION= 
##DELTAX=   0.48211674
##XUNITS= 1/CM
##YUNITS= TRANSMITTANCE
##XFACTOR= 1.00000
##YFACTOR= 1E-005
##FIRSTX=   599.7532
##LASTX=  4000.1226
##NPOINTS=     7054
##FIRSTY=      0.67349
##MAXY=      0.94558
##MINY=      0.43319
##XYDATA= (X++(Y..Y))
599.7532 67349 67630 67771 67789 67749 67720 67735 67774 67782 67708 67546
605.0565 67343 67176 67105 67135 67214 67261 67205 67031 66786 66556 66421
610.3598 66416 66504 66593 66570 66355 65945 65411 64866 64404 64066 63834
615.6631 63665 63531 63434 63396 63420 63472 63502 63487 63450 63447 63520
620.9664 63666 63822 63901 63845 63658 63396 63139 62957 62891 62951 63124
626.2697 63377 63675 63991 64316 64657 65024 65410 65774 66057 66208 66216
631.5729 66133 66048 66052 66188 66421 66659 66800 66794 66671 66526 66461
636.8762 66529 66701 66889 66994 66959 66789 66543 66298 66115 66023 66017
642.1795 66067 66123 66131 66049 65863 65595 65299 65032 64822 64658 64493
647.4828 64282 64005 63689 63387 63148 62983 62866 62758 62628 62471 62284
652.7861 62053 61750 61357 60892 60423 60030 59760 59581 59393 59082 58593
658.0894 57965 57311 56753 56354 56089 55868 55590 55183 54627 53944 53182
663.3926 52394 51639 50972 50438 50062 49863 49884 50265 51392 53976 58046
668.6959 61607 63752 65475 67457 69801 72288 74528 76109 76802 76673 76016
673.9992 75162 74314 73495 72586 71418 69893 68052 66077 64205 62604 61280
679.3025 60091 58840 57419 55878 54400 53199 52406 52031 51998 52238 52736
684.6058 53522 54606 55923 57337 58695 59878 60816 61471 61836 61955 61938
689.9091 61923 62000 62141 62194 61954 61285 60216 58949 57775 56950 56599
695.2123 56687 57013 57266 57121 56375 55075 53534 52190 51392 51237 51541
700.5156 51944 52107 51867 51291 50588 49980 49619 49578 49880 50524 51479
705.8189 52684 54068 55582 57216 58981 60857 62770 64606 66269 67728 69029
711.1222 70259 71500 72809 74231 75818 77627 79680 81919 84182 86244 87908
716.4255 89096 89889 90467 91001 91570 92130 92570 92805 92848 92815 92832
721.7288 92951 93126 93257 93253 93077 92756 92360 91973 91659 91459 91378
727.0320 91386 91427 91438 91383 91276 91164 91100 91095 91113 91094 91002
732.3353 90850 90689 90563 90466 90336 90086 89661 89074 88401 87739 87156
737.6386 86670 86261 85897 85560 85245 84944 84636 84283 83852 83340 82777
742.9419 82215 81695 81225 80771 80278 79704 79042 78332 77632 76991 76429
748.2452 75941 75525 75204 75032 75064 75319 75769 76342 76964 77594 78228
753.5485 78884 79563 80234 80836 81307 81620 81794 81888 81957 82028 82083
758.8517 82079 81987 81819 81630 81486 81427 81437 81458 81417 81269 81008
764.1550 80667 80289 79924 79609 79376 79234 79161 79101 78992 78791 78505
769.4583 78184 77886 77642 77445 77265 77076 76869 76648 76407 76125 75776
774.7616 75356 74892 74433 74031 73713 73475 73293 73138 72980 72798 72574
780.0649 72304 71994 71658 71307 70947 70576 70193 69812 69455 69137 68851
785.3682 68567 68243 67850 67391 66900 66432 66037 65741 65537 65390 65248
790.6714 65065 64814 64502 64157 63808 63475 63150 62817 62465 62100 61746
795.9747 61425 61141 60872 60579 60218 59771 59247 58693 58174 57752 57464
801.2780 57311 57264 57284 57355 57494 57740 58121 58629 59210 59796 60337
806.5813 60833 61316 61810 62295 62708 62986 63133 63250 63518 64123 65168
811.8846 66622 68323 70044 71567 72754 73562 74032 74256 74341 74389 74474
817.1879 74638 74889 75202 75543 75880 76204 76525 76865 77232 77611 77958
822.4911 78222 78365 78383 78305 78185 78078 78026 78045 78129 78254 78389
827.7944 78497 78556 78559 78522 78472 78435 78424 78436 78467 78513 78578
833.0977 78661 78743 78792 78778 78698 78592 78523 78546 78672 78858 79027
838.4010 79111 79084 78977 78851 78763 78739 78771 78830 78887 78925 78937
843.7043 78919 78867 78776 78650 78504 78361 78244 78159 78095 78030 77944
849.0076 77831 77705 77582 77473 77371 77252 77091 76876 76611 76321 76037
854.3109 75790 75609 75509 75496 75555 75650 75733 75756 75687 75520 75270
859.6141 74956 74594 74194 73763 73313 72861 72420 71987 71544 71060 70502
864.9174 69845 69073 68182 67176 66078 64934 63808 62773 61892 61207 60736
870.2207 60482 60442 60615 60999 61586 62355 63276 64311 65420 66565 67709
875.5240 68808 69817 70699 71427 71999 72431 72751 72986 73156 73278 73363
880.8273 73426 73479 73524 73553 73554 73516 73442 73343 73233 73118 72997
886.1306 72865 72718 72565 72419 72291 72189 72107 72036 71966 71891 71802
891.4338 71695 71563 71410 71250 71109 71009 70958 70934 70897 70806 70639
896.7371 70408 70147 69891 69659 69446 69237 69019 68797 68583 68390 68219
902.0404 68060 67898 67729 67555 67384 67218 67053 66881 66695 66496 66288
907.3437 66080 65876 65678 65484 65290 65092 64889 64686 64486 64294 64115
912.6470 63948 63793 63650 63523 63413 63315 63212 63085 62917 62702 62453
917.9503 62191 61944 61728 61551 61409 61289 61179 61065 60940 60796 60630
923.2535 60439 60221 59979 59729 59497 59318 59227 59245 59375 59604 59905
928.5568 60248 60605 60951 61269 61555 61811 62046 62270 62485 62692 62891
933.8601 63093 63314 63575 63891 64265 64691 65156 65646 66148 66640 67096
939.1634 67485 67782 67976 68082 68130 68165 68226 68343 68530 68787 69106
944.4667 69472 69863 70252 70612 70928 71203 71459 71727 72029 72367 72723
949.7700 73068 73379 73651 73897 74132 74366 74592 74800 74981 75135 75270
955.0732 75393 75501 75580 75613 75586 75496 75352 75172 74980 74808 74689
960.3765 74657 74736 74936 75247 75646 76106 76604 77118 77623 78090 78489
965.6798 78799 79016 79155 79243 79298 79326 79316 79255 79133 78960 78758
970.9831 78564 78417 78349 78375 78488 78662 78860 79055 79238 79420 79618
976.2864 79836 80063 80270 80438 80558 80646 80716 80776 80812 80795 80702
981.5897 80525 80277 79983 79662 79321 78952 78544 78095 77612 77113 76613
986.8929 76119 75634 75160 74705 74291 73946 73704 73595 73637 73826 74135
992.1962 74512 74892 75214 75440 75556 75586 75576 75583 75648 75758 75835
997.4995 75744 75364 74669 73791 72999 72599 72784 73539 74632 75727 76528
1002.8028 76894 76857 76555 76139 75704 75282 74868 74457 74047 73643 73241
1008.1061 72836 72436 72064 71758 71544 71425 71372 71335 71261 71111 70870
1013.4094 70545 70162 69754 69346 68953 68576 68206 67843 67502 67210 66998
1018.7126 66884 66863 66914 67005 67107 67198 67263 67291 67270 67186 67020
1024.0160 66747 66349 65846 65332 65000 65106 65886 67451 69706 72359 75009
1029.3192 77286 78965 80010 80533 80715 80720 80658 80582 80512 80456 80421
1034.6226 80409 80422 80455 80503 80562 80629 80703 80782 80864 80943 81007
1039.9258 81045 81049 81025 80993 80973 80982 81019 81070 81115 81143 81152
1045.2291 81145 81128 81100 81053 80982 80889 80785 80689 80619 80582 80569
1050.5323 80560 80532 80475 80392 80302 80226 80175 80144 80118 80081 80027
1055.8357 79962 79900 79845 79796 79741 79671 79585 79487 79390 79297 79210
1061.1389 79120 79015 78889 78734 78554 78353 78138 77910 77665 77392 77081
1066.4423 76730 76351 75967 75601 75262 74940 74612 74253 73859 73448 73064
1071.7455 72763 72603 72635 72898 73420 74206 75229 76420 77676 78873 79904
1077.0488 80697 81239 81558 81711 81753 81724 81643 81508 81312 81045 80703
1082.3521 80294 79834 79340 78826 78295 77746 77172 76573 75951 75316 74678
1087.6554 74057 73486 73018 72717 72645 72833 73277 73931 74725 75579 76420
1092.9586 77190 77847 78372 78765 79041 79225 79336 79384 79371 79290 79143
1098.2620 78939 78704 78473 78288 78186 78194 78322 78560 78881 79248 79621
1103.5652 79970 80272 80517 80703 80832 80910 80947 80953 80940 80912 80867
1108.8685 80796 80691 80549 80377 80186 79991 79801 79623 79454 79293 79134
1114.1718 78971 78800 78616 78418 78209 77991 77764 77524 77265 76986 76690
1119.4751 76387 76085 75786 75480 75154 74792 74388 73947 73477 72988 72487
1124.7783 71978 71472 70989 70564 70243 70072 70096 70343 70824 71527 72413
1130.0817 73420 74470 75487 76408 77200 77854 78379 78790 79103 79330 79489
1135.3849 79596 79667 79714 79738 79733 79695 79626 79536 79438 79343 79255
1140.6882 79166 79066 78951 78824 78698 78587 78496 78418 78338 78240 78120
1145.9915 77986 77856 77748 77669 77618 77582 77546 77501 77444 77379 77312
1151.2948 77244 77178 77110 77036 76958 76878 76801 76731 76666 76601 76526
1156.5980 76432 76316 76181 76034 75889 75755 75641 75545 75462 75378 75279
1161.9014 75157 75006 74830 74634 74425 74209 73985 73751 73506 73254 73005
1167.2046 72774 72577 72423 72305 72202 72085 71930 71723 71467 71170 70839
1172.5079 70474 70068 69616 69119 68590 68046 67505 66978 66475 66012 65611
1177.8112 65307 65131 65111 65254 65544 65944 66397 66841 67222 67505 67676
1183.1145 67745 67732 67663 67560 67451 67368 67357 67471 67760 68250 68936
1188.4177 69778 70713 71673 72596 73437 74164 74760 75214 75530 75720 75809
1193.7211 75826 75796 75733 75644 75525 75375 75194 74988 74766 74536 74305
1199.0243 74074 73840 73597 73340 73070 72794 72520 72254 71993 71731 71454
1204.3276 71152 70824 70474 70108 69733 69350 68954 68540 68105 67647 67170
1209.6309 66683 66191 65700 65210 64718 64224 63727 63236 62764 62332 61966
1214.9342 61698 61564 61605 61857 62345 63069 63998 65073 66216 67353 68427
1220.2374 69407 70279 71043 71696 72233 72651 72956 73165 73305 73402 73475
1225.5408 73528 73558 73554 73512 73437 73342 73242 73144 73045 72930 72785
1230.8440 72605 72403 72202 72028 71894 71794 71707 71606 71474 71309 71121
1236.1473 70923 70723 70523 70315 70095 69864 69626 69389 69158 68933 68711
1241.4506 68488 68261 68033 67804 67579 67357 67135 66907 66669 66414 66142
1246.7539 65856 65561 65260 64957 64652 64345 64036 63726 63415 63105 62796
1252.0571 62490 62190 61898 61614 61332 61042 60738 60416 60083 59748 59417
1257.3605 59094 58775 58454 58125 57786 57437 57079 56710 56329 55934 55525
1262.6637 55108 54684 54252 53808 53342 52849 52325 51771 51192 50595 49985
1267.9670 49370 48758 48157 47573 47006 46456 45928 45429 44972 44569 44226
1273.2703 43941 43712 43534 43407 43334 43319 43359 43445 43563 43698 43841
1278.5736 43987 44137 44295 44465 44649 44853 45085 45355 45672 46038 46444
1283.8768 46877 47322 47774 48235 48716 49223 49763 50329 50915 51513 52122
1289.1802 52747 53392 54060 54745 55438 56132 56825 57520 58220 58923 59619
1294.4834 60301 60969 61630 62299 62986 63695 64417 65138 65844 66528 67192
1299.7867 67838 68474 69102 69721 70326 70913 71481 72037 72594 73167 73771
1305.0900 74410 75083 75780 76487 77182 77840 78428 78918 79287 79522 79620
1310.3933 79586 79423 79139 78745 78259 77708 77122 76521 75916 75304 74680
1315.6965 74036 73368 72668 71924 71119 70238 69278 68260 67224 66222 65295
1320.9999 64474 63773 63203 62773 62494 62377 62426 62639 63002 63497 64098
1326.3031 64787 65553 66396 67328 68358 69489 70714 72013 73360 74725 76085
1331.6064 77421 78718 79956 81110 82160 83095 83921 84658 85327 85938 86488
1336.9097 86965 87362 87684 87952 88194 88432 88671 88900 89101 89260 89376
1342.2130 89455 89503 89525 89525 89507 89475 89433 89387 89341 89302 89269
1347.5162 89239 89206 89161 89101 89033 88966 88915 88890 88891 88915 88951
1352.8196 88994 89039 89086 89134 89182 89225 89260 89286 89306 89320 89331
1358.1228 89333 89321 89288 89231 89150 89046 88923 88786 88641 88498 88371
1363.4261 88266 88178 88096 88007 87904 87784 87651 87507 87354 87193 87026
1368.7294 86855 86682 86511 86337 86159 85976 85789 85596 85393 85172 84921
1374.0327 84644 84358 84086 83841 83616 83398 83166 82905 82610 82284 81947
1379.3359 81616 81305 81012 80730 80444 80149 79847 79549 79268 79014 78785
1384.6393 78576 78377 78180 77985 77798 77636 77507 77408 77320 77222 77103
1389.9425 76958 76792 76612 76430 76250 76068 75876 75661 75413 75137 74853
1395.2458 74589 74354 74143 73941 73736 73521 73296 73068 72852 72660 72493
1400.5491 72340 72188 72030 71861 71681 71490 71284 71059 70813 70549 70280
1405.8524 70011 69736 69441 69114 68753 68365 67963 67554 67137 66705 66256
1411.1556 65799 65347 64913 64499 64101 63719 63355 63019 62727 62492 62322
1416.4590 62214 62158 62153 62221 62415 62784 63280 63757 64120 64377 64576
1421.7622 64762 64965 65208 65501 65836 66183 66518 66840 67169 67525 67921
1427.0656 68355 68818 69316 69883 70581 71456 72480 73544 74549 75478 76387
1432.3688 77336 78333 79318 80200 80931 81531 82078 82676 83398 84170 84802
1437.6721 85215 85471 85646 85775 85865 85907 85894 85822 85691 85502 85252
1442.9753 84939 84558 84108 83596 83036 82437 81796 81082 80239 79214 78013
1448.2787 76728 75466 74253 73035 71732 70302 68796 67395 66363 65922 66142
1453.5819 66958 68246 69896 71837 74049 76519 79122 81490 83198 84190 84732
1458.8853 85073 85334 85563 85782 86004 86235 86468 86695 86905 87102 87306
1464.1885 87548 87844 88160 88439 88655 88817 88945 89049 89128 89174 89178
1469.4918 89137 89050 88917 88729 88468 88122 87730 87389 87155 86995 86852
1474.7950 86682 86453 86155 85811 85472 85177 84921 84678 84421 84135 83821
1480.0984 83491 83169 82879 82642 82468 82356 82298 82283 82300 82341 82402
1485.4016 82489 82608 82755 82910 83038 83110 83123 83096 83067 83076 83142
1490.7050 83232 83282 83251 83122 82895 82586 82216 81811 81400 81023 80746
1496.0082 80645 80758 81057 81510 82108 82832 83594 84256 84726 85011 85176
1501.3115 85291 85393 85486 85555 85588 85585 85549 85480 85358 85146 84829
1506.6147 84520 84368 84344 84355 84363 84360 84351 84333 84304 84258 84189
1511.9181 84101 84001 83895 83784 83663 83527 83370 83188 82972 82723 82468
1517.2213 82258 82113 82011 81923 81824 81692 81506 81248 80949 80704 80561
1522.5247 80472 80386 80282 80156 80011 79857 79714 79601 79520 79458 79402
1527.8279 79341 79275 79207 79131 79041 78933 78803 78656 78492 78308 78098
1533.1312 77868 77656 77500 77399 77319 77228 77112 76969 76803 76618 76407
1538.4344 76145 75812 75458 75219 75135 75126 75126 75110 75071 75015 74953
1543.7378 74902 74886 74932 75051 75221 75405 75580 75743 75907 76088 76311
1549.0410 76609 77009 77492 77984 78408 78737 78981 79169 79337 79527 79772
1554.3444 80055 80314 80504 80627 80703 80747 80761 80734 80647 80532 80523
1559.6476 80625 80735 80817 80871 80902 80916 80914 80896 80858 80797 80717
1564.9509 80630 80548 80479 80419 80361 80297 80216 80105 79948 79753 79566
1570.2542 79424 79321 79228 79122 78992 78844 78690 78547 78420 78290 78109
1575.5575 77811 77390 76975 76691 76521 76396 76264 76108 75926 75732 75541
1580.8607 75370 75229 75129 75086 75121 75259 75527 75949 76546 77324 78266
1586.1641 79325 80426 81481 82405 83134 83638 83918 84003 83931 83743 83475
1591.4674 83152 82792 82401 81982 81534 81059 80570 80080 79601 79132 78666
1596.7706 78191 77710 77235 76793 76411 76114 75919 75832 75852 75970 76180
1602.0740 76477 76854 77300 77787 78282 78762 79219 79658 80088 80511 80919
1607.3772 81304 81660 81986 82281 82534 82730 82857 82918 82926 82892 82821
1612.6805 82711 82565 82396 82219 82039 81841 81576 81181 80673 80215 79954
1617.9838 79879 79921 80033 80184 80342 80468 80527 80500 80376 80154 79846
1623.2871 79509 79229 79046 78937 78865 78815 78796 78834 78957 79165 79410
1628.5903 79627 79784 79884 79942 79969 79967 79937 79881 79804 79711 79602
1633.8937 79461 79266 78997 78689 78442 78300 78216 78141 78052 77946 77823
1639.1969 77683 77523 77343 77142 76923 76691 76451 76215 75994 75794 75613
1644.5002 75436 75235 74982 74667 74342 74090 73945 73854 73758 73631 73480
1649.8035 73316 73148 72979 72801 72597 72318 71900 71456 71250 71197 71154
1655.1068 71081 70974 70832 70658 70456 70236 70008 69782 69565 69363 69183
1660.4100 69024 68876 68712 68491 68189 67835 67502 67232 67010 66799 66570
1665.7134 66319 66060 65812 65577 65336 65057 64727 64389 64122 63949 63824
1671.0166 63690 63529 63359 63214 63110 63041 62985 62911 62799 62670 62582
1676.3199 62554 62563 62582 62594 62592 62578 62567 62585 62653 62771 62916
1681.6232 63060 63184 63284 63399 63672 64329 65209 65874 66296 66624 66948
1686.9265 67311 67731 68219 68774 69387 70038 70700 71352 71977 72567 73119
1692.2297 73628 74088 74494 74850 75176 75524 75987 76633 77338 77873 78198
1697.5331 78403 78562 78717 78913 79240 79796 80406 80753 80891 80973 81068
1702.8363 81206 81403 81663 81977 82331 82722 83163 83655 84163 84639 85061
1708.1396 85438 85795 86156 86526 86887 87211 87479 87689 87851 87979 88088
1713.4429 88209 88379 88625 88924 89213 89437 89584 89676 89774 89959 90248
1718.7462 90567 90858 91113 91346 91563 91768 91964 92156 92354 92562 92775
1724.0494 92979 93163 93326 93470 93603 93722 93821 93892 93929 93930 93898
1729.3528 93842 93784 93744 93730 93733 93733 93711 93643 93524 93412 93434
1734.6560 93609 93832 94036 94207 94346 94451 94522 94557 94558 94537 94511
1739.9594 94495 94487 94471 94429 94354 94247 94126 94027 93978 93973 93985
1745.2626 93981 93942 93864 93754 93631 93521 93445 93404 93381 93359 93330
1750.5659 93302 93299 93339 93412 93494 93566 93620 93661 93697 93735 93775
1755.8691 93810 93830 93832 93825 93821 93826 93835 93835 93815 93766 93687
1761.1725 93593 93511 93459 93435 93418 93396 93367 93338 93315 93300 93285
1766.4757 93253 93191 93094 92980 92882 92820 92790 92771 92742 92684 92586
1771.7791 92460 92357 92317 92330 92359 92377 92368 92325 92254 92170 92097
1777.0823 92044 92008 91978 91942 91893 91835 91779 91733 91694 91649 91584
1782.3856 91496 91390 91282 91192 91134 91112 91111 91110 91097 91070 91035
1787.6888 90996 90954 90908 90857 90803 90750 90703 90673 90675 90721 90804
1792.9922 90893 90956 90980 90968 90934 90898 90885 90906 90956 91014 91062
1798.2954 91092 91109 91120 91131 91142 91145 91137 91128 91136 91176 91252
1803.5988 91348 91441 91510 91544 91545 91523 91494 91466 91443 91419 91391
1808.9020 91358 91322 91292 91273 91271 91284 91305 91324 91336 91334 91319
1814.2053 91293 91260 91226 91195 91171 91157 91155 91164 91176 91179 91159
1819.5085 91110 91033 90933 90819 90701 90583 90471 90368 90285 90232 90223
1824.8119 90261 90327 90387 90420 90425 90414 90402 90401 90422 90475 90557
1830.1151 90649 90730 90791 90831 90853 90861 90860 90860 90870 90895 90933
1835.4185 90976 91015 91044 91065 91087 91122 91174 91241 91317 91389 91449
1840.7217 91492 91518 91530 91532 91521 91492 91443 91388 91352 91348 91369
1846.0250 91401 91435 91465 91489 91507 91523 91541 91567 91606 91660 91719
1851.3282 91768 91785 91756 91689 91607 91540 91510 91515 91531 91533 91508
1856.6316 91465 91433 91437 91482 91552 91618 91659 91671 91666 91655 91639
1861.9348 91612 91565 91496 91413 91322 91225 91119 91004 90887 90790 90736
1867.2382 90739 90794 90878 90957 91011 91040 91053 91060 91058 91041 91007
1872.5414 90960 90910 90865 90827 90792 90754 90715 90684 90670 90679 90709
1877.8447 90751 90795 90830 90847 90840 90806 90750 90683 90619 90570 90540
1883.1479 90522 90505 90481 90450 90422 90401 90386 90363 90320 90253 90173
1888.4513 90104 90070 90077 90101 90102 90052 89955 89835 89725 89658 89651
1893.7545 89699 89777 89846 89875 89856 89806 89759 89742 89758 89785 89785
1899.0579 89726 89611 89479 89386 89378 89463 89607 89755 89859 89898 89880
1904.3611 89832 89781 89739 89705 89667 89615 89540 89447 89345 89251 89177
1909.6644 89134 89119 89123 89129 89123 89095 89045 88983 88927 88887 88861
1914.9677 88834 88785 88708 88620 88558 88563 88642 88751 88826 88836 88792
1920.2710 88728 88671 88628 88579 88498 88382 88272 88233 88309 88498 88752
1925.5742 88993 89140 89145 89016 88809 88600 88448 88372 88354 88359 88361
1930.8776 88350 88339 88347 88394 88491 88638 88818 89001 89153 89242 89255
1936.1808 89198 89096 88983 88901 88888 88974 89160 89414 89672 89869 89966
1941.4841 89979 89976 90048 90240 90520 90818 91082 91290 91437 91504 91452
1946.7874 91254 90927 90551 90250 90136 90247 90523 90824 91010 91010 90860
1952.0907 90664 90528 90504 90579 90697 90809 90903 90997 91117 91264 91408
1957.3939 91501 91501 91395 91208 90986 90771 90578 90399 90226 90082 90024
1962.6973 90118 90387 90770 91138 91358 91373 91244 91121 91155 91399 91774
