##TITLE= Nefazolina_BB
##JCAMP-DX= 4.24
##DATA TYPE= INFRARED SPECTRUM
##ORIGIN= JASCO
##OWNER= 
##DATE= 22/03/30
##TIME= 17:56:44
##SPECTROMETER/DATA SYSTEM= 
##RESOLUTION= 
##DELTAX=   0.48211674
##XUNITS= 1/CM
##YUNITS= TRANSMITTANCE
##XFACTOR= 1.00000
##YFACTOR= 1E-005
##FIRSTX=   599.7532
##LASTX=  4000.1226
##NPOINTS=     7054
##FIRSTY=      0.78441
##MAXY=      0.94750
##MINY=      0.37999
##XYDATA= (X++(Y..Y))
599.7532 78441 78166 77944 77778 77684 77686 77789 77941 78043 77993 77755
605.0565 77389 77020 76759 76642 76619 76608 76556 76475 76426 76463 76588
610.3598 76742 76840 76817 76662 76424 76180 75997 75900 75864 75836 75765
615.6631 75632 75461 75294 75165 75077 75000 74897 74746 74530 74236 73846
620.9664 73356 72792 72206 71650 71137 70637 70110 69558 69059 68751 68757
626.2697 69104 69705 70392 70997 71413 71617 71657 71613 71560 71540 71561
631.5729 71599 71621 71604 71549 71486 71458 71497 71616 71804 72047 72338
636.8762 72681 73072 73487 73877 74184 74368 74425 74387 74304 74217 74153
642.1795 74130 74168 74285 74475 74684 74811 74746 74430 73897 73273 72715
647.4828 72343 72181 72162 72185 72186 72186 72256 72460 72789 73153 73420
652.7861 73480 73307 72960 72544 72158 71856 71639 71480 71346 71220 71107
658.0894 71025 71003 71061 71196 71374 71538 71626 71598 71457 71243 71007
663.3926 70787 70595 70425 70277 70171 70153 70295 70704 71495 72531 72862
668.6959 71765 70302 69281 68716 68455 68379 68403 68481 68611 68820 69113
673.9992 69422 69603 69494 69018 68245 67385 66712 66465 66757 67512 68446
679.3025 69126 69152 68388 67113 65968 65662 66565 68407 70303 71205 70519
684.6058 68463 65899 63794 62714 62635 63090 63525 63597 63268 62693 62057
689.9091 61501 61146 61138 61618 62627 64011 65383 66217 66064 64810 62779
695.2123 60595 58893 58055 58084 58633 59170 59240 58676 57644 56502 55595
700.5156 55110 55045 55273 55626 55968 56229 56405 56550 56747 57063 57515
705.8189 58048 58574 59016 59353 59609 59814 59975 60078 60122 60146 60233
711.1222 60472 60918 61575 62396 63304 64205 65005 65622 66009 66160 66121
716.4255 65969 65780 65604 65445 65275 65062 64802 64533 64315 64186 64127
721.7288 64074 63962 63767 63514 63259 63053 62904 62782 62642 62462 62256
727.0320 62062 61919 61840 61814 61807 61780 61697 61539 61308 61034 60763
732.3353 60539 60385 60292 60224 60130 59972 59734 59429 59094 58774 58510
737.6386 58316 58171 58032 57853 57608 57306 56987 56697 56469 56307 56197
742.9419 56115 56053 56016 56019 56075 56177 56301 56413 56478 56478 56406
748.2452 56262 56051 55779 55465 55148 54886 54730 54702 54777 54898 55013
753.5485 55105 55203 55356 55600 55936 56334 56767 57229 57740 58326 58991
758.8517 59705 60420 61097 61725 62319 62899 63477 64041 64564 65005 65329
764.1550 65503 65508 65342 65027 64612 64155 63710 63310 62950 62602 62228
769.4583 61801 61319 60802 60277 59769 59288 58836 58413 58012 57628 57243
774.7616 56840 56404 55931 55430 54916 54398 53869 53310 52701 52029 51293
780.0649 50497 49647 48746 47792 46793 45766 44743 43764 42861 42049 41325
785.3682 40668 40053 39468 38922 38454 38124 37999 38124 38504 39094 39811
790.6714 40564 41284 41945 42561 43163 43775 44409 45064 45743 46461 47246
795.9747 48124 49114 50214 51408 52673 53985 55322 56672 58021 59354 60646
801.2780 61861 62965 63934 64775 65513 66185 66812 67395 67919 68364 68725
806.5813 69013 69247 69442 69604 69730 69817 69862 69868 69845 69808 69780
811.8846 69782 69835 69944 70098 70271 70425 70531 70575 70566 70532 70514
817.1879 70549 70667 70878 71174 71535 71927 72304 72617 72820 72879 72779
822.4911 72526 72138 71633 71031 70356 69650 68976 68410 68020 67849 67903
827.7944 68165 68600 69172 69841 70562 71284 71962 72569 73112 73623 74137
833.0977 74672 75217 75731 76175 76522 76778 76969 77132 77296 77477 77675
838.4010 77879 78074 78248 78392 78508 78608 78705 78810 78926 79045 79162
843.7043 79271 79374 79474 79567 79640 79678 79673 79633 79587 79567 79596
849.0076 79675 79780 79872 79922 79920 79881 79836 79810 79811 79828 79839
854.3109 79830 79802 79766 79733 79704 79671 79629 79578 79525 79467 79388
859.6141 79254 79041 78757 78445 78174 78009 77983 78091 78304 78586 78902
864.9174 79220 79508 79737 79894 79989 80048 80093 80126 80128 80074 79957
870.2207 79795 79618 79444 79265 79060 78813 78539 78276 78065 77929 77861
875.5240 77841 77856 77918 78052 78275 78584 78948 79324 79676 79992 80280
880.8273 80557 80836 81115 81377 81599 81759 81852 81885 81879 81861 81852
886.1306 81864 81892 81920 81924 81886 81803 81689 81573 81489 81463 81500
891.4338 81589 81704 81818 81913 81982 82021 82024 81984 81900 81784 81666
896.7371 81585 81567 81613 81699 81782 81829 81831 81802 81763 81732 81707
902.0404 81681 81645 81602 81561 81531 81509 81484 81444 81385 81314 81242
907.3437 81177 81118 81053 80977 80892 80816 80771 80768 80801 80840 80851
912.6470 80811 80722 80611 80510 80443 80415 80412 80416 80410 80387 80344
917.9503 80281 80200 80114 80038 79993 79985 80008 80046 80084 80121 80170
923.2535 80249 80361 80498 80634 80743 80808 80818 80770 80658 80481 80245
928.5568 79971 79696 79467 79323 79291 79376 79563 79823 80125 80435 80727
933.8601 80985 81205 81391 81555 81708 81854 81988 82097 82169 82197 82187
939.1634 82152 82111 82077 82061 82066 82092 82132 82176 82212 82231 82231
944.4667 82215 82191 82162 82125 82073 82005 81927 81854 81802 81777 81771
949.7700 81765 81737 81676 81586 81476 81357 81234 81106 80969 80819 80650
955.0732 80457 80233 79981 79707 79426 79150 78886 78637 78406 78207 78065
960.3765 78006 78045 78179 78388 78645 78923 79203 79471 79714 79923 80095
965.6798 80237 80359 80468 80561 80623 80636 80594 80506 80395 80284 80182
970.9831 80085 79976 79838 79669 79476 79276 79080 78889 78690 78468 78211
976.2864 77923 77624 77342 77105 76931 76824 76773 76763 76781 76819 76872
981.5897 76934 76994 77044 77077 77096 77109 77125 77145 77163 77168 77155
986.8929 77128 77102 77094 77118 77178 77267 77377 77501 77638 77790 77959
992.1962 78138 78311 78459 78569 78639 78676 78694 78699 78687 78648 78570
997.4995 78452 78304 78147 78001 77877 77774 77682 77586 77482 77373 77269
1002.8028 77181 77112 77055 76997 76921 76817 76685 76529 76355 76163 75952
1008.1061 75721 75473 75218 74966 74723 74483 74239 73987 73731 73485 73265
1013.4094 73078 72925 72802 72705 72631 72574 72515 72417 72241 71956 71562
1018.7126 71099 70638 70263 70049 70042 70254 70655 71189 71777 72335 72785
1024.0160 73065 73133 72973 72586 71988 71194 70217 69064 67747 66292 64752
1029.3192 63204 61741 60449 59400 58641 58209 58127 58407 59035 59957 61085
1034.6226 62311 63546 64736 65871 66962 68022 69042 69999 70869 71641 72328
1039.9258 72952 73535 74084 74591 75046 75446 75796 76109 76392 76647 76863
1045.2291 77027 77119 77122 77013 76772 76380 75834 75146 74353 73512 72691
1050.5323 71968 71418 71104 71069 71331 71875 72658 73619 74682 75772 76823
1055.8357 77786 78633 79356 79961 80460 80864 81186 81436 81625 81767 81872
1061.1389 81947 81997 82023 82025 82004 81964 81913 81862 81825 81805 81802
1066.4423 81800 81788 81756 81709 81660 81621 81599 81586 81571 81542 81495
1071.7455 81432 81357 81275 81181 81068 80924 80741 80525 80298 80098 79967
1077.0488 79933 79998 80131 80286 80423 80522 80592 80652 80719 80788 80838
1082.3521 80845 80797 80705 80601 80518 80479 80483 80509 80530 80527 80496
1087.6554 80449 80402 80364 80333 80298 80248 80179 80095 80007 79925 79856
1092.9586 79800 79752 79704 79650 79586 79516 79448 79392 79353 79329 79313
1098.2620 79298 79281 79260 79237 79213 79185 79150 79109 79065 79023 78989
1103.5652 78963 78939 78914 78884 78853 78823 78798 78777 78758 78738 78715
1108.8685 78693 78675 78659 78642 78619 78586 78546 78504 78465 78430 78398
1114.1718 78366 78331 78290 78242 78184 78120 78055 78001 77968 77958 77961
1119.4751 77961 77943 77900 77840 77777 77721 77676 77635 77586 77523 77447
1124.7783 77366 77292 77229 77178 77133 77088 77040 76986 76927 76861 76790
1130.0817 76711 76629 76544 76459 76371 76275 76165 76040 75901 75749 75584
1135.3849 75400 75188 74944 74666 74360 74035 73699 73359 73023 72708 72440
1140.6882 72250 72161 72187 72322 72545 72830 73154 73494 73834 74158 74450
1145.9915 74697 74893 75035 75128 75177 75188 75170 75127 75063 74973 74850
1151.2948 74689 74490 74265 74027 73783 73531 73263 72974 72668 72364 72088
1156.5980 71865 71708 71619 71585 71584 71592 71591 71570 71531 71483 71436
1161.9014 71392 71347 71292 71221 71136 71053 70990 70963 70974 71009 71048
1167.2046 71073 71075 71060 71044 71037 71042 71051 71048 71025 70981 70927
1172.5079 70880 70849 70838 70845 70868 70906 70964 71043 71140 71246 71353
1177.8112 71457 71559 71665 71779 71898 72014 72118 72203 72267 72311 72334
1183.1145 72336 72313 72268 72203 72123 72034 71936 71829 71711 71578 71428
1188.4177 71261 71077 70880 70674 70463 70242 70002 69732 69422 69075 68702
1193.7211 68326 67971 67661 67420 67266 67211 67253 67376 67552 67749 67935
1199.0243 68089 68200 68266 68286 68263 68204 68113 67997 67864 67721 67575
1204.3276 67434 67303 67182 67066 66951 66833 66716 66603 66499 66405 66321
1209.6309 66246 66177 66115 66052 65982 65896 65791 65667 65529 65381 65224
1214.9342 65052 64865 64663 64452 64239 64028 63821 63616 63416 63224 63046
1220.2374 62884 62742 62620 62520 62442 62389 62357 62340 62329 62312 62276
1225.5408 62214 62122 62001 61857 61697 61526 61346 61157 60958 60753 60548
1230.8440 60356 60188 60053 59950 59874 59816 59766 59717 59665 59608 59545
1236.1473 59479 59411 59343 59273 59195 59103 58996 58876 58749 58619 58486
1241.4506 58346 58194 58029 57849 57655 57443 57213 56966 56707 56446 56190
1246.7539 55941 55694 55442 55180 54910 54638 54371 54110 53854 53597 53332
1252.0571 53059 52782 52506 52239 51981 51730 51480 51225 50958 50676 50376
1257.3605 50055 49715 49362 49012 48689 48425 48252 48188 48241 48407 48677
1262.6637 49041 49486 49990 50518 51026 51475 51831 52076 52204 52214 52112
1267.9670 51908 51621 51277 50906 50533 50172 49830 49504 49189 48882 48584
1273.2703 48300 48033 47783 47548 47319 47088 46852 46608 46359 46105 45848
1278.5736 45586 45317 45042 44764 44484 44205 43926 43648 43374 43110 42864
1283.8768 42646 42462 42317 42217 42168 42185 42282 42476 42772 43170 43663
1289.1802 44241 44900 45631 46420 47235 48035 48771 49398 49887 50219 50390
1294.4834 50409 50285 50037 49689 49272 48821 48368 47937 47541 47186 46876
1299.7867 46615 46408 46259 46167 46134 46157 46232 46353 46512 46700 46912
1305.0900 47147 47409 47700 48021 48368 48735 49117 49509 49909 50316 50725
1310.3933 51133 51536 51931 52319 52700 53074 53437 53783 54107 54410 54698
1315.6965 54982 55273 55578 55898 56227 56554 56870 57166 57441 57699 57946
1320.9999 58188 58425 58656 58878 59092 59304 59522 59752 59996 60244 60485
1326.3031 60705 60895 61057 61195 61322 61445 61571 61698 61823 61939 62044
1331.6064 62138 62221 62296 62361 62416 62464 62511 62566 62635 62716 62797
1336.9097 62861 62896 62903 62895 62892 62912 62956 63009 63051 63068 63057
1342.2130 63022 62968 62897 62817 62733 62650 62568 62483 62388 62277 62147
1347.5162 62004 61855 61708 61569 61439 61320 61215 61131 61075 61052 61063
1352.8196 61114 61214 61375 61607 61902 62239 62590 62930 63250 63543 63807
1358.1228 64035 64224 64372 64485 64567 64627 64668 64695 64712 64725 64732
1363.4261 64732 64716 64682 64626 64551 64459 64357 64254 64161 64089 64042
1368.7294 64020 64011 64000 63975 63930 63865 63785 63700 63617 63543 63477
1374.0327 63416 63349 63269 63177 63078 62976 62875 62773 62669 62557 62432
1379.3359 62292 62139 61976 61809 61642 61475 61304 61119 60915 60689 60447
1384.6393 60200 59959 59732 59519 59317 59114 58901 58670 58424 58166 57896
1389.9425 57613 57314 57000 56673 56339 56001 55665 55341 55053 54841 54742
1395.2458 54751 54826 54928 55057 55240 55527 55964 56545 57175 57720 58117
1400.5491 58389 58587 58750 58894 59022 59137 59252 59392 59580 59812 60051
1405.8524 60260 60427 60570 60712 60871 61051 61246 61451 61667 61901 62159
1411.1556 62445 62755 63089 63442 63808 64181 64558 64944 65353 65795 66262
1416.4590 66730 67174 67594 68035 68589 69321 70147 70867 71389 71768 72087
1421.7622 72413 72793 73262 73833 74467 75085 75628 76097 76524 76943 77362
1427.0656 77771 78154 78507 78847 79206 79601 80009 80379 80679 80917 81129
1432.3688 81346 81576 81802 81998 82149 82258 82335 82394 82440 82472 82496
1437.6721 82521 82560 82623 82724 82876 83092 83372 83707 84078 84469 84870
1442.9753 85276 85682 86077 86445 86766 87028 87225 87361 87441 87467 87442
1448.2787 87376 87286 87179 87056 86907 86723 86498 86235 85950 85663 85387
1453.5819 85129 84892 84679 84490 84319 84146 83936 83675 83409 83220 83133
1458.8853 83128 83181 83278 83415 83592 83807 84046 84292 84526 84730 84875
1464.1885 84919 84817 84587 84314 84082 83935 83903 84021 84319 84793 85396
1469.4918 86053 86704 87322 87908 88482 89043 89527 89832 89955 89972 89929
1474.7950 89822 89618 89273 88776 88173 87530 86885 86238 85594 84992 84510
1480.0984 84255 84312 84688 85296 86011 86735 87419 88047 88610 89099 89513
1485.4016 89864 90177 90473 90757 91005 91188 91296 91341 91345 91333 91332
1490.7050 91355 91395 91439 91480 91513 91535 91545 91541 91523 91490 91442
1496.0082 91384 91326 91272 91213 91135 91035 90920 90809 90713 90628 90542
1501.3115 90442 90324 90195 90065 89942 89830 89724 89612 89461 89193 88698
1506.6147 88042 87530 87192 86852 86413 85878 85295 84725 84220 83822 83572
1511.9181 83498 83602 83852 84199 84601 85035 85495 86001 86618 87430 88412
1517.2213 89333 89986 90380 90615 90775 90911 91059 91246 91471 91677 91815
1522.5247 91903 91962 91998 92003 91974 91917 91848 91789 91746 91710 91671
1527.8279 91622 91566 91508 91453 91400 91346 91290 91230 91167 91101 91040
1533.1312 90996 90981 90992 91010 91020 91019 91010 90998 90995 91012 91066
1538.4344 91166 91283 91306 91158 90948 90782 90673 90593 90519 90438 90351
1543.7378 90264 90186 90127 90095 90081 90072 90057 90029 89990 89940 89882
1549.0410 89819 89751 89682 89609 89534 89459 89386 89318 89253 89191 89129
1554.3444 89071 89021 88983 88958 88947 88953 88975 89010 89012 88862 88591
1559.6476 88414 88314 88226 88128 88020 87907 87793 87682 87572 87457 87325
1564.9509 87168 86988 86799 86614 86438 86270 86106 85936 85748 85528 85289
1570.2542 85050 84814 84559 84263 83912 83509 83081 82662 82278 81936 81637
1575.5575 81386 81215 81138 81120 81123 81134 81154 81175 81180 81146 81057
1580.8607 80907 80700 80446 80154 79832 79489 79133 78771 78407 78042 77678
1586.1641 77317 76959 76599 76232 75850 75446 75015 74549 74038 73468 72831
1591.4674 72126 71364 70550 69683 68758 67778 66776 65822 65015 64446 64180
1596.7706 64237 64584 65135 65755 66293 66605 66594 66229 65546 64628 63570
1602.0740 62452 61333 60261 59278 58420 57706 57143 56735 56488 56409 56499
1607.3772 56751 57154 57707 58411 59255 60193 61160 62109 63038 63992 65023
1612.6805 66150 67328 68464 69484 70385 71279 72435 74240 76762 79265 81022
1617.9838 82112 82920 83703 84552 85442 86291 87025 87626 88137 88623 89129
1623.2871 89626 90034 90325 90541 90734 90937 91167 91442 91774 92148 92519
1628.5903 92840 93101 93320 93519 93714 93905 94083 94233 94352 94447 94529
1633.8937 94611 94692 94750 94738 94648 94547 94483 94458 94456 94464 94476
1639.1969 94491 94509 94532 94556 94575 94584 94582 94575 94569 94570 94577
1644.5002 94587 94594 94584 94541 94456 94350 94271 94246 94268 94313 94363
1649.8035 94403 94427 94430 94412 94374 94327 94304 94342 94360 94319 94255
1655.1068 94191 94133 94085 94047 94019 94000 93985 93972 93957 93941 93926
1660.4100 93919 93921 93936 93959 93979 93979 93955 93916 93874 93835 93804
1665.7134 93779 93760 93743 93726 93710 93700 93705 93731 93771 93809 93838
1671.0166 93858 93871 93874 93867 93848 93821 93789 93763 93761 93787 93823
1676.3199 93843 93844 93831 93810 93786 93762 93743 93736 93742 93759 93777
1681.6232 93786 93782 93762 93725 93682 93667 93690 93703 93689 93659 93623
1686.9265 93585 93551 93523 93500 93482 93465 93447 93431 93417 93405 93394
1692.2297 93378 93356 93325 93288 93247 93208 93170 93131 93080 93021 92961
1697.5331 92905 92852 92800 92748 92707 92698 92728 92746 92735 92711 92680
1702.8363 92648 92614 92581 92552 92538 92550 92590 92645 92694 92721 92724
1708.1396 92716 92709 92715 92739 92776 92814 92838 92841 92824 92791 92746
1713.4429 92703 92679 92697 92758 92836 92902 92941 92954 92951 92951 92962
1718.7462 92971 92968 92955 92940 92926 92915 92904 92892 92878 92864 92858
1724.0494 92861 92870 92877 92875 92863 92843 92820 92796 92773 92747 92719
1729.3528 92688 92655 92616 92565 92501 92425 92347 92281 92254 92283 92318
1734.6560 92288 92206 92114 92029 91957 91896 91847 91814 91809 91848 91929
1739.9594 92019 92075 92090 92081 92071 92080 92118 92179 92240 92278 92288
1745.2626 92277 92257 92238 92232 92246 92280 92323 92353 92359 92345 92328
1750.5659 92331 92375 92455 92544 92618 92668 92699 92717 92728 92739 92755
1755.8691 92777 92801 92818 92821 92812 92800 92790 92785 92782 92779 92780
1761.1725 92793 92832 92891 92953 92999 93023 93025 93010 92983 92950 92919
1766.4757 92897 92891 92905 92937 92969 92981 92968 92935 92892 92850 92827
1771.7791 92834 92861 92877 92870 92850 92833 92828 92840 92863 92884 92891
1777.0823 92877 92842 92794 92742 92698 92674 92682 92719 92771 92814 92831
1782.3856 92820 92787 92745 92711 92701 92721 92757 92787 92794 92775 92739
1787.6888 92700 92670 92654 92652 92656 92661 92666 92674 92690 92715 92737
1792.9922 92746 92738 92718 92690 92655 92613 92564 92512 92461 92413 92372
1798.2954 92339 92323 92330 92363 92413 92470 92520 92557 92578 92581 92569
1803.5988 92546 92516 92481 92443 92404 92367 92340 92329 92336 92356 92381
1808.9020 92401 92409 92403 92388 92375 92376 92394 92425 92457 92475 92470
1814.2053 92443 92405 92372 92360 92371 92395 92410 92401 92365 92314 92268
1819.5085 92242 92241 92258 92277 92281 92257 92207 92146 92095 92076 92102
1824.8119 92162 92214 92219 92167 92079 91983 91901 91850 91845 91890 91960
1830.1151 92012 92019 91989 91938 91879 91815 91750 91691 91646 91628 91641
1835.4185 91684 91747 91814 91872 91911 91928 91926 91908 91875 91829 91776
1840.7217 91724 91676 91632 91589 91550 91529 91548 91613 91688 91724 91706
1846.0250 91654 91598 91569 91584 91636 91696 91732 91735 91721 91714 91734
1851.3282 91783 91845 91891 91903 91876 91827 91781 91757 91766 91798 91837
1856.6316 91862 91865 91849 91832 91833 91859 91904 91946 91958 91926 91856
1861.9348 91773 91713 91703 91746 91824 91905 91961 91980 91967 91938 91912
1867.2382 91901 91905 91916 91926 91931 91931 91926 91919 91909 91899 91892
1872.5414 91888 91884 91876 91863 91848 91838 91841 91858 91887 91925 91971
1877.8447 92025 92083 92133 92157 92142 92090 92020 91960 91929 91929 91946
1883.1479 91962 91971 91979 91998 92028 92050 92037 91977 91883 91786 91725
1888.4513 91723 91775 91849 91909 91942 91955 91961 91955 91923 91855 91757
1893.7545 91653 91572 91536 91546 91586 91639 91690 91727 91735 91706 91638
1899.0579 91546 91457 91392 91360 91358 91379 91419 91477 91541 91584 91578
1904.3611 91510 91399 91293 91243 91273 91365 91475 91553 91579 91569 91563
1909.6644 91592 91661 91742 91802 91818 91794 91745 91693 91652 91624 91599
1914.9677 91568 91528 91493 91484 91530 91642 91792 91918 91962 91909 91784
1920.2710 91631 91493 91417 91441 91577 91791 92003 92136 92158 92084 91959
1925.5742 91829 91723 91646 91583 91523 91470 91456 91509 91635 91793 91916
1930.8776 91943 91856 91691 91517 91401 91378 91449 91594 91788 92001 92195
1936.1808 92318 92323 92190 91948 91668 91429 91273 91188 91125 91036 90913
1941.4841 90804 90788 90917 91149 91373 91488 91459 91319 91143 91015 90989
1946.7874 91060 91167 91235 91220 91135 91045 91040 91186 91487 91871 92215
1952.0907 92394 92338 92064 91664 91276 91021 90954 91046 91199 91305 91307
1957.3939 91237 91196 91296 91585 92008 92424 92683 92710 92535 92247 91926
1962.6973 91591 91220 90809 90416 90146 90106 90333 90753 91186 91414 91301
