##TITLE= STDNICOTINAMIDE
##JCAMP-DX= 4.24
##DATA TYPE= INFRARED SPECTRUM
##ORIGIN= JASCO
##OWNER= 
##DATE= 22/05/03
##TIME= 15:29:19
##SPECTROMETER/DATA SYSTEM= 
##RESOLUTION= 
##DELTAX=   0.48211674
##XUNITS= 1/CM
##YUNITS= TRANSMITTANCE
##XFACTOR= 1.00000
##YFACTOR= 1E-005
##FIRSTX=   599.7532
##LASTX=  4000.1226
##NPOINTS=     7054
##FIRSTY=      0.38779
##MAXY=      0.96606
##MINY=      0.38779
##XYDATA= (X++(Y..Y))
599.7532 38779 38870 39061 39387 39851 40432 41097 41805 42498 43100 43540
605.0565 43792 43899 43963 44096 44374 44816 45392 46060 46782 47534 48283
610.3598 48984 49585 50050 50374 50584 50713 50789 50831 50848 50847 50822
615.6631 50747 50576 50258 49772 49156 48508 47960 47644 47670 48114 48993
620.9664 50235 51675 53088 54274 55125 55667 56050 56505 57265 58466 60084
626.2697 61942 63791 65410 66691 67660 68440 69173 69940 70727 71450 72032
631.5729 72463 72812 73172 73598 74067 74512 74871 75128 75315 75463 75580
636.8762 75651 75664 75631 75579 75514 75397 75161 74753 74177 73480 72720
642.1795 71914 71044 70115 69221 68569 68412 68910 70026 71528 73111 74540
647.4828 75710 76628 77346 77905 78330 78652 78932 79246 79645 80114 80577
652.7861 80933 81115 81126 81038 80949 80950 81081 81325 81610 81838 81920
658.0894 81821 81575 81271 81000 80809 80683 80576 80463 80364 80336 80434
663.3926 80674 81021 81413 81798 82165 82535 82939 83384 83767 83674 82527
668.6959 80918 79978 79704 79766 79988 80293 80623 80913 81108 81198 81229
673.9992 81270 81368 81516 81662 81743 81722 81595 81371 81052 80634 80121
679.3025 79545 78970 78469 78088 77834 77684 77602 77558 77535 77522 77505
684.6058 77471 77400 77268 77053 76740 76337 75877 75406 74957 74517 74029
689.9091 73424 72670 71799 70887 70004 69164 68308 67332 66152 64758 63226
695.2123 61681 60236 58946 57813 56808 55902 55081 54344 53693 53136 52700
700.5156 52450 52479 52888 53743 55055 56776 58819 61079 63447 65812 68070
705.8189 70135 71952 73498 74775 75794 76576 77153 77580 77924 78250 78583
711.1222 78901 79146 79264 79243 79129 79001 78940 78989 79147 79380 79637
716.4255 79863 80020 80093 80101 80100 80157 80318 80573 80851 81058 81139
721.7288 81109 81027 80946 80889 80846 80801 80756 80735 80760 80822 80882
727.0320 80885 80807 80677 80573 80584 80760 81081 81466 81818 82079 82262
732.3353 82442 82707 83099 83580 84045 84375 84499 84432 84260 84094 84017
737.6386 84054 84188 84385 84636 84973 85449 86102 86922 87841 88756 89593
742.9419 90347 91080 91871 92752 93673 94526 95208 95669 95926 96024 95985
748.2452 95795 95430 94904 94291 93690 93174 92758 92407 92082 91775 91515
753.5485 91312 91123 90847 90386 89728 88989 88362 88000 87899 87870 87638
758.8517 87023 86083 85080 84300 83895 83839 83972 84096 84087 83947 83762
764.1550 83607 83467 83249 82841 82190 81330 80360 79384 78469 77625 76814
769.4583 75988 75115 74205 73309 72489 71794 71240 70808 70456 70140 69830
774.7616 69520 69222 68959 68753 68619 68559 68571 68659 68826 69073 69382
780.0649 69709 69998 70205 70326 70407 70511 70686 70930 71195 71417 71562
785.3682 71648 71731 71869 72083 72358 72653 72939 73211 73482 73760 74030
790.6714 74258 74412 74497 74557 74669 74902 75284 75783 76319 76794 77140
795.9747 77342 77441 77509 77610 77787 78048 78378 78752 79138 79498 79795
801.2780 80009 80146 80247 80367 80549 80801 81095 81390 81654 81876 82066
806.5813 82231 82367 82462 82505 82499 82460 82407 82357 82326 82328 82380
811.8846 82488 82645 82822 82982 83097 83157 83168 83148 83113 83070 83019
817.1879 82958 82885 82796 82689 82564 82428 82290 82158 82023 81863 81638
822.4911 81305 80831 80200 79416 78496 77468 76359 75202 74043 72960 72074
827.7944 71533 71481 72001 73071 74561 76273 78007 79620 81041 82264 83305
833.0977 84177 84879 85400 85745 85937 86022 86053 86076 86117 86180 86248
838.4010 86296 86303 86265 86201 86150 86150 86220 86343 86471 86543 86517
843.7043 86393 86215 86047 85946 85936 86005 86118 86237 86336 86403 86437
849.0076 86441 86424 86401 86392 86407 86443 86477 86484 86447 86374 86292
854.3109 86234 86223 86262 86334 86413 86470 86492 86480 86450 86427 86426
859.6141 86448 86471 86469 86423 86335 86229 86141 86096 86098 86130 86165
864.9174 86178 86158 86113 86061 86023 86010 86024 86053 86083 86102 86109
870.2207 86112 86117 86127 86132 86122 86092 86048 86002 85966 85943 85925
875.5240 85908 85892 85886 85897 85921 85941 85936 85895 85828 85762 85729
880.8273 85749 85818 85907 85980 86002 85966 85890 85815 85779 85803 85875
886.1306 85956 86007 86005 85961 85903 85863 85854 85874 85909 85945 85974
891.4338 85990 85990 85974 85945 85910 85877 85849 85823 85793 85761 85735
896.7371 85723 85729 85745 85759 85761 85747 85730 85725 85748 85802 85877
902.0404 85950 85992 85985 85930 85842 85748 85669 85613 85581 85571 85585
907.3437 85627 85694 85771 85833 85855 85830 85767 85691 85625 85588 85584
912.6470 85610 85651 85687 85700 85672 85604 85508 85408 85327 85281 85271
917.9503 85291 85329 85376 85421 85448 85443 85394 85301 85179 85054 84956
923.2535 84904 84897 84920 84945 84945 84904 84819 84701 84563 84415 84260
928.5568 84096 83921 83736 83539 83325 83082 82794 82453 82056 81612 81130
933.8601 80622 80112 79644 79288 79128 79225 79594 80187 80914 81673 82389
939.1634 83023 83564 84016 84382 84664 84865 84993 85063 85088 85077 85041
944.4667 84991 84941 84907 84900 84917 84948 84978 84996 84998 84985 84962
949.7700 84931 84891 84846 84798 84756 84725 84704 84688 84667 84631 84583
955.0732 84527 84470 84418 84370 84323 84275 84229 84186 84147 84111 84072
960.3765 84023 83958 83874 83772 83656 83529 83394 83244 83064 82840 82565
965.6798 82240 81872 81466 81021 80547 80077 79680 79450 79470 79774 80321
970.9831 81009 81709 82313 82764 83057 83224 83306 83339 83345 83341 83338
976.2864 83346 83370 83409 83451 83482 83485 83451 83381 83287 83191 83114
981.5897 83069 83054 83051 83039 82999 82926 82832 82734 82650 82591 82556
986.8929 82532 82509 82473 82420 82350 82268 82180 82090 82001 81913 81819
992.1962 81707 81559 81358 81101 80808 80523 80302 80196 80228 80389 80641
997.4995 80935 81224 81470 81648 81745 81760 81704 81592 81442 81269 81085
1002.8028 80905 80747 80631 80571 80561 80575 80577 80532 80427 80271 80094
1008.1061 79924 79781 79664 79557 79441 79303 79145 78976 78808 78641 78466
1013.4094 78269 78041 77780 77494 77187 76855 76491 76084 75636 75155 74653
1018.7126 74145 73645 73169 72734 72347 72000 71660 71278 70806 70215 69495
1024.0160 68657 67708 66649 65470 64171 62783 61396 60168 59321 59096 59697
1029.3192 61213 63573 66553 69845 73145 76210 78880 81068 82744 83925 84658
1034.6226 85010 85050 84844 84459 83982 83525 83221 83188 83480 84059 84802
1039.9258 85552 86173 86596 86826 86912 86914 86876 86820 86751 86676 86604
1045.2291 86543 86494 86448 86396 86329 86242 86136 86011 85870 85726 85597
1050.5323 85499 85440 85406 85370 85303 85195 85056 84916 84802 84729 84690
1055.8357 84666 84635 84586 84521 84448 84375 84305 84233 84153 84061 83962
1061.1389 83867 83786 83727 83687 83655 83615 83555 83470 83367 83260 83166
1066.4423 83091 83032 82978 82916 82835 82739 82633 82529 82432 82343 82261
1071.7455 82186 82120 82066 82018 81964 81888 81775 81620 81432 81230 81037
1077.0488 80870 80732 80618 80511 80396 80263 80107 79928 79730 79512 79276
1082.3521 79022 78759 78494 78238 77995 77762 77535 77304 77067 76830 76602
1087.6554 76396 76223 76089 75993 75933 75903 75896 75911 75946 76010 76111
1092.9586 76255 76438 76643 76845 77023 77172 77299 77422 77552 77691 77827
1098.2620 77950 78049 78124 78177 78209 78217 78196 78146 78073 77989 77903
1103.5652 77823 77750 77683 77621 77566 77517 77479 77455 77452 77478 77537
1108.8685 77627 77729 77820 77876 77889 77869 77837 77816 77811 77810 77789
1114.1718 77725 77606 77438 77233 77004 76756 76488 76194 75869 75512 75124
1119.4751 74710 74276 73828 73373 72916 72469 72055 71711 71482 71409 71521
1124.7783 71819 72289 72903 73631 74444 75314 76207 77083 77907 78650 79296
1130.0817 79842 80290 80643 80909 81099 81230 81319 81381 81419 81428 81396
1135.3849 81319 81208 81082 80966 80870 80793 80718 80624 80500 80347 80175
1140.6882 79995 79814 79635 79458 79285 79121 78966 78813 78649 78456 78222
1145.9915 77941 77616 77260 76885 76506 76128 75754 75378 74997 74612 74232
1151.2948 73872 73554 73305 73147 73100 73169 73352 73635 74000 74429 74902
1156.5980 75404 75914 76418 76900 77355 77780 78170 78513 78788 78978 79082
1161.9014 79118 79123 79130 79160 79211 79266 79304 79314 79299 79266 79223
1167.2046 79173 79117 79055 78988 78922 78856 78792 78729 78667 78611 78570
1172.5079 78550 78549 78562 78573 78572 78554 78525 78498 78484 78483 78486
1177.8112 78478 78450 78402 78344 78288 78239 78192 78134 78058 77963 77857
1183.1145 77756 77668 77594 77524 77446 77352 77242 77121 76995 76863 76721
1188.4177 76564 76395 76226 76069 75926 75786 75627 75427 75175 74876 74542
1193.7211 74186 73814 73427 73022 72597 72151 71678 71167 70603 69969 69256
1199.0243 68468 67631 66792 66025 65423 65092 65135 65624 66582 67957 69635
1204.3276 71455 73252 74888 76278 77389 78229 78829 79228 79462 79567 79583
1209.6309 79547 79496 79448 79409 79367 79309 79226 79123 79010 78900 78800
1214.9342 78707 78610 78502 78378 78243 78111 77992 77895 77818 77755 77695
1220.2374 77628 77546 77449 77337 77214 77083 76951 76823 76703 76591 76482
1225.5408 76369 76243 76099 75937 75764 75588 75420 75271 75150 75070 75038
1230.8440 75060 75137 75267 75445 75667 75930 76228 76550 76880 77198 77485
1236.1473 77722 77900 78016 78077 78095 78086 78064 78040 78019 78003 77988
1241.4506 77973 77953 77925 77885 77830 77764 77695 77633 77586 77554 77530
1246.7539 77507 77478 77447 77424 77420 77443 77491 77557 77633 77712 77798
1252.0571 77897 78015 78152 78305 78466 78627 78785 78943 79109 79291 79495
1257.3605 79719 79954 80188 80406 80596 80756 80880 80968 81012 81009 80955
1262.6637 80849 80694 80502 80295 80114 80010 80025 80162 80369 80531 80519
1267.9670 80267 79822 79326 78937 78761 78829 79100 79490 79900 80254 80521
1273.2703 80705 80825 80899 80929 80918 80863 80768 80634 80464 80261 80029
1278.5736 79775 79510 79243 78982 78735 78503 78285 78078 77884 77707 77555
1283.8768 77434 77342 77270 77202 77124 77030 76928 76833 76762 76725 76718
1289.1802 76731 76749 76767 76784 76805 76832 76862 76886 76896 76884 76852
1294.4834 76807 76759 76716 76680 76649 76620 76588 76555 76524 76502 76490
1299.7867 76484 76479 76464 76436 76394 76341 76281 76216 76146 76072 75996
1305.0900 75925 75866 75822 75792 75769 75742 75704 75651 75586 75518 75455
1310.3933 75409 75386 75389 75417 75461 75512 75558 75593 75613 75618 75607
1315.6965 75580 75535 75474 75400 75321 75243 75172 75110 75056 75005 74952
1320.9999 74893 74827 74756 74685 74614 74537 74447 74337 74206 74063 73921
1326.3031 73788 73664 73537 73392 73221 73022 72801 72568 72328 72080 71818
1331.6064 71537 71232 70901 70546 70168 69762 69321 68835 68295 67709 67097
1336.9097 66486 65902 65363 64897 64565 64465 64701 65311 66238 67373 68617
1342.2130 69895 71142 72297 73295 74093 74676 75060 75279 75367 75356 75272
1347.5162 75135 74963 74767 74556 74338 74119 73908 73715 73549 73412 73302
1352.8196 73208 73121 73034 72945 72859 72780 72709 72646 72590 72539 72492
1358.1228 72445 72394 72330 72249 72147 72024 71875 71700 71496 71274 71054
1363.4261 70856 70685 70531 70377 70212 70032 69840 69639 69432 69223 69018
1368.7294 68825 68650 68489 68333 68166 67979 67762 67514 67233 66926 66611
1374.0327 66310 66040 65793 65544 65267 64952 64597 64211 63804 63383 62953
1379.3359 62516 62074 61631 61192 60757 60324 59886 59435 58962 58464 57948
1384.6393 57425 56908 56404 55913 55435 54979 54558 54180 53839 53518 53210
1389.9425 52918 52660 52454 52313 52240 52234 52306 52495 52868 53492 54350
1395.2458 55306 56201 56966 57620 58230 58875 59630 60515 61455 62323 63053
1400.5491 63669 64230 64784 65344 65906 66468 67055 67719 68506 69404 70329
1405.8524 71191 71961 72667 73351 74036 74714 75353 75922 76403 76798 77120
1411.1556 77379 77582 77724 77794 77779 77670 77466 77169 76775 76282 75699
1416.4590 75052 74377 73690 72955 72091 71052 69973 69115 68588 68322 68225
1421.7622 68265 68490 69016 69971 71372 73046 74759 76388 77934 79422 80846
1427.0656 82150 83276 84194 84925 85515 86008 86417 86736 86967 87134 87263
1432.3688 87380 87495 87610 87719 87814 87888 87921 87886 87766 87619 87550
1437.6721 87593 87711 87858 88006 88137 88241 88314 88364 88402 88440 88481
1442.9753 88527 88574 88620 88662 88694 88706 88688 88628 88522 88381 88242
1448.2787 88147 88109 88107 88112 88106 88084 88057 88040 88046 88074 88116
1453.5819 88160 88200 88232 88244 88208 88075 87804 87441 87152 87058 87130
1458.8853 87276 87430 87564 87671 87753 87817 87867 87906 87929 87921 87862
1464.1885 87737 87572 87439 87394 87431 87508 87587 87644 87669 87671 87666
1469.4918 87672 87693 87719 87717 87631 87398 87037 86709 86545 86518 86544
1474.7950 86558 86525 86438 86323 86223 86157 86110 86051 85954 85804 85590
1480.0984 85309 84968 84579 84162 83736 83318 82920 82554 82233 81974 81794
1485.4016 81722 81805 82093 82590 83218 83846 84384 84825 85225 85654 86120
1490.7050 86556 86902 87155 87342 87485 87597 87679 87727 87729 87670 87537
1496.0082 87350 87165 87029 86943 86886 86838 86797 86766 86747 86729 86704
1501.3115 86669 86631 86605 86603 86625 86664 86706 86733 86698 86500 86001
1506.6147 85309 84841 84714 84768 84882 85000 85100 85172 85212 85223 85212
1511.9181 85189 85164 85143 85125 85101 85064 85006 84922 84811 84693 84616
1517.2213 84617 84679 84755 84817 84848 84833 84741 84535 84245 84026 83975
1522.5247 84022 84080 84111 84101 84046 83957 83859 83780 83732 83699 83664
1527.8279 83617 83563 83516 83482 83456 83428 83386 83317 83213 83063 82868
1533.1312 82663 82514 82457 82465 82488 82495 82477 82435 82373 82286 82153
1538.4344 81924 81542 81069 80748 80685 80766 80889 81006 81097 81149 81158
1543.7378 81135 81092 81049 81018 80994 80965 80918 80850 80761 80655 80535
1549.0410 80403 80268 80137 80020 79916 79819 79721 79613 79482 79317 79121
1554.3444 78926 78769 78650 78543 78425 78276 78072 77782 77376 76961 76813
1559.6476 76845 76861 76830 76763 76664 76531 76361 76158 75932 75707 75514
1564.9509 75362 75232 75091 74917 74709 74472 74208 73908 73551 73133 72694
1570.2542 72280 71884 71462 70978 70416 69791 69143 68517 67951 67502 67335
1575.5575 67803 69197 71106 72762 73941 74807 75510 76092 76520 76742 76737
1580.8607 76536 76197 75774 75304 74808 74300 73795 73298 72809 72314 71797
1586.1641 71243 70638 69974 69247 68452 67585 66643 65631 64567 63498 62500
1591.4674 61676 61136 60980 61281 62060 63265 64757 66338 67818 69069 70046
1596.7706 70759 71243 71539 71685 71716 71663 71548 71385 71183 70952 70702
1602.0740 70449 70204 69972 69749 69525 69289 69035 68762 68474 68181 67893
1607.3772 67617 67357 67116 66897 66699 66518 66345 66172 65998 65830 65680
1612.6805 65557 65458 65370 65276 65173 65081 65070 65262 65724 66294 66737
1617.9838 67021 67233 67455 67730 68059 68413 68759 69095 69465 69968 70707
1623.2871 71661 72616 73360 73873 74244 74567 74910 75323 75829 76396 76937
1628.5903 77378 77702 77945 78148 78344 78546 78746 78920 79049 79126 79158
1633.8937 79159 79147 79151 79195 79270 79344 79404 79454 79494 79517 79512
1639.1969 79478 79417 79342 79260 79180 79098 79010 78910 78796 78663 78507
1644.5002 78321 78097 77842 77591 77413 77344 77326 77273 77144 76948 76706
1649.8035 76436 76139 75806 75418 74941 74342 73720 73513 73708 73793 73694
1655.1068 73489 73222 72912 72566 72194 71810 71426 71045 70661 70267 69861
1660.4100 69449 69041 68645 68269 67918 67595 67289 66979 66645 66270 65850
1665.7134 65393 64918 64450 64003 63586 63207 62884 62632 62438 62263 62076
1671.0166 61873 61656 61429 61192 60946 60712 60538 60531 60818 61381 61964
1676.3199 62369 62614 62794 62986 63244 63613 64122 64754 65425 66019 66460
1681.6232 66733 66861 66903 67020 67677 69437 71524 72720 73205 73436 73625
1686.9265 73852 74147 74522 74963 75435 75889 76290 76626 76901 77120 77286
1692.2297 77397 77452 77452 77401 77300 77166 77057 77115 77443 77915 78357
1697.5331 78716 79004 79260 79618 80511 82667 85568 87544 88548 89191 89787
1702.8363 90441 91162 91896 92554 93060 93413 93691 93975 94292 94614 94906
1708.1396 95156 95364 95537 95677 95792 95892 95995 96108 96230 96346 96434
1713.4429 96472 96447 96378 96312 96287 96300 96309 96255 96093 95877 95765
1718.7462 95828 95992 96178 96343 96473 96561 96605 96606 96569 96511 96452
1724.0494 96411 96396 96399 96407 96408 96400 96385 96370 96350 96316 96253
1729.3528 96158 96055 95985 95975 96015 96074 96113 96073 95877 95505 95166
1734.6560 95086 95201 95373 95537 95676 95783 95852 95871 95825 95715 95578
1739.9594 95481 95463 95500 95553 95590 95596 95567 95518 95473 95448 95445
1745.2626 95458 95480 95503 95517 95512 95483 95440 95396 95362 95331 95296
1750.5659 95253 95221 95226 95277 95358 95445 95519 95568 95585 95568 95520
1755.8691 95447 95368 95304 95268 95254 95247 95232 95204 95160 95097 95014
1761.1725 94917 94827 94769 94750 94754 94758 94750 94728 94698 94670 94651
1766.4757 94637 94620 94595 94566 94548 94551 94569 94588 94591 94568 94518
1771.7791 94467 94458 94501 94567 94625 94666 94691 94707 94721 94737 94756
1777.0823 94770 94776 94766 94738 94691 94627 94554 94487 94444 94433 94452
1782.3856 94491 94535 94572 94590 94582 94553 94516 94486 94469 94463 94462
1787.6888 94460 94451 94430 94396 94345 94276 94189 94089 93990 93919 93898
1792.9922 93921 93962 93993 94000 93975 93920 93849 93786 93744 93728 93729
1798.2954 93737 93749 93767 93794 93832 93870 93897 93906 93895 93875 93860
1803.5988 93861 93881 93913 93945 93969 93979 93982 93989 94010 94044 94081
1808.9020 94104 94098 94059 93996 93930 93886 93877 93901 93946 93995 94036
1814.2053 94055 94047 94012 93958 93898 93846 93811 93800 93809 93830 93855
1819.5085 93875 93891 93906 93925 93949 93970 93975 93949 93885 93790 93691
1824.8119 93630 93643 93723 93825 93907 93943 93923 93840 93696 93520 93373
1830.1151 93317 93354 93441 93536 93619 93686 93740 93789 93832 93865 93876
1835.4185 93854 93799 93721 93645 93596 93587 93610 93647 93673 93671 93637
1840.7217 93576 93503 93428 93360 93298 93246 93214 93216 93250 93290 93308
1846.0250 93295 93252 93196 93151 93139 93162 93203 93236 93245 93233 93219
1851.3282 93226 93271 93348 93436 93500 93514 93471 93388 93296 93225 93185
1856.6316 93167 93150 93119 93076 93035 93011 93006 93013 93020 93024 93028
1861.9348 93037 93047 93045 93022 92980 92940 92930 92968 93051 93154 93234
1867.2382 93255 93196 93068 92912 92782 92703 92667 92646 92627 92607 92597
1872.5414 92608 92637 92668 92679 92658 92613 92564 92532 92528 92545 92573
1877.8447 92600 92623 92641 92654 92659 92660 92665 92691 92751 92844 92947
1883.1479 93026 93044 92981 92850 92690 92549 92462 92433 92439 92449 92439
1888.4513 92403 92359 92334 92340 92366 92388 92393 92387 92386 92404 92445
1893.7545 92494 92525 92513 92452 92365 92288 92254 92274 92331 92385 92389
1899.0579 92308 92140 91919 91700 91536 91462 91480 91567 91686 91801 91882
1904.3611 91915 91896 91832 91737 91633 91548 91514 91551 91662 91816 91965
1909.6644 92064 92099 92093 92086 92099 92125 92135 92109 92050 91988 91953
1914.9677 91949 91952 91928 91859 91756 91657 91608 91620 91664 91706 91729
1920.2710 91740 91748 91759 91772 91781 91779 91767 91745 91717 91689 91665
1925.5742 91653 91651 91645 91609 91522 91384 91226 91101 91061 91129 91279
1930.8776 91444 91541 91516 91374 91177 91015 90960 91030 91182 91344 91456
1936.1808 91497 91484 91455 91441 91459 91518 91626 91787 91991 92213 92406
1941.4841 92513 92489 92330 92086 91830 91608 91428 91280 91149 91030 90934
1946.7874 90886 90917 91051 91285 91580 91869 92074 92140 92051 91830 91526
1952.0907 91203 90925 90738 90647 90612 90564 90454 90296 90163 90141 90259
1957.3939 90465 90653 90739 90730 90722 90822 91054 91318 91455 91354 91038
1962.6973 90652 90368 90281 90376 90557 90743 90922 91151 91487 91898 92229
