##TITLE= INCBENZOCAINA
##JCAMP-DX= 4.24
##DATA TYPE= INFRARED SPECTRUM
##ORIGIN= JASCO
##OWNER= 
##DATE= 22/04/13
##TIME= 14:42:45
##SPECTROMETER/DATA SYSTEM= 
##RESOLUTION= 
##DELTAX=   0.48211674
##XUNITS= 1/CM
##YUNITS= TRANSMITTANCE
##XFACTOR= 1.00000
##YFACTOR= 1E-005
##FIRSTX=   599.7532
##LASTX=  4000.1226
##NPOINTS=     7054
##FIRSTY=      0.62639
##MAXY=      0.97778
##MINY=      0.41774
##XYDATA= (X++(Y..Y))
599.7532 62639 62634 62629 62666 62753 62849 62886 62809 62605 62314 62014
605.0565 61785 61673 61685 61795 61971 62197 62475 62810 63179 63528 63784
610.3598 63896 63871 63772 63688 63681 63762 63894 64030 64141 64232 64328
615.6631 64452 64616 64824 65084 65419 65863 66448 67194 68111 69195 70419
620.9664 71733 73057 74293 75347 76144 76635 76808 76683 76312 75773 75154
626.2697 74540 74002 73587 73307 73133 72995 72797 72461 71963 71351 70728
631.5729 70208 69872 69736 69750 69823 69850 69754 69505 69128 68672 68176
636.8762 67632 66994 66221 65345 64505 63926 63842 64385 65525 67070 68748
642.1795 70296 71534 72392 72891 73116 73179 73195 73258 73423 73696 74037
647.4828 74367 74592 74635 74476 74177 73864 73680 73718 73983 74377 74733
652.7861 74889 74765 74402 73948 73585 73448 73572 73891 74281 74624 74846
658.0894 74924 74875 74735 74554 74388 74296 74317 74446 74627 74767 74789
663.3926 74675 74484 74313 74222 74198 74158 73982 73530 72693 71653 71289
668.6959 72066 72986 73434 73485 73345 73177 73077 73061 73087 73105 73124
673.9992 73206 73413 73737 74083 74310 74321 74124 73827 73561 73408 73363
679.3025 73376 73404 73450 73559 73768 74061 74344 74479 74361 73985 73477
684.6058 73027 72773 72707 72678 72486 72020 71332 70612 70064 69781 69710
689.9091 69693 69579 69297 68868 68349 67774 67133 66392 65533 64577 63573
695.2123 62558 61529 60439 59226 57854 56364 54883 53607 52744 52452 52805
700.5156 53783 55295 57214 59402 61725 64057 66276 68266 69943 71286 72357
705.8189 73286 74207 75190 76199 77112 77785 78137 78199 78107 78025 78071
711.1222 78267 78544 78796 78944 78984 78974 78989 79065 79174 79243 79205
716.4255 79056 78860 78713 78684 78768 78891 78939 78829 78561 78218 77915
721.7288 77725 77655 77665 77711 77765 77820 77873 77908 77897 77817 77670
727.0320 77496 77347 77254 77216 77198 77165 77104 77030 76967 76927 76904
732.3353 76884 76872 76891 76971 77119 77303 77461 77529 77476 77317 77103
737.6386 76898 76760 76729 76818 77014 77273 77536 77741 77850 77864 77816
742.9419 77754 77718 77726 77776 77852 77936 78014 78071 78096 78086 78042
748.2452 77970 77872 77741 77560 77320 77029 76703 76360 76001 75604 75141
753.5485 74599 73998 73389 72836 72390 72064 71828 71613 71330 70893 70243
758.8517 69380 68363 67296 66285 65404 64670 64036 63409 62679 61760 60610
764.1550 59234 57663 55936 54096 52192 50284 48442 46733 45212 43919 42889
769.4583 42160 41774 41780 42216 43108 44462 46268 48502 51130 54102 57346
774.7616 60763 64222 67572 70666 73383 75655 77465 78840 79834 80517 80966
780.0649 81267 81496 81710 81928 82133 82292 82380 82397 82366 82324 82299
785.3682 82296 82300 82283 82221 82105 81950 81789 81659 81580 81548 81534
790.6714 81506 81443 81346 81223 81089 80949 80808 80672 80551 80454 80383
795.9747 80334 80298 80269 80240 80199 80132 80026 79886 79736 79616 79559
801.2780 79570 79626 79686 79711 79675 79576 79426 79250 79074 78926 78826
806.5813 78777 78762 78748 78701 78594 78432 78249 78097 78021 78037 78116
811.8846 78197 78224 78172 78068 77976 77958 78041 78204 78393 78552 78648
817.1879 78673 78642 78576 78496 78416 78345 78282 78210 78110 77969 77789
822.4911 77592 77404 77240 77099 76969 76837 76696 76545 76382 76203 76001
827.7944 75775 75527 75259 74963 74622 74224 73771 73290 72820 72397 72035
833.0977 71720 71424 71118 70786 70419 70009 69542 68995 68350 67600 66749
838.4010 65807 64774 63636 62360 60918 59296 57519 55660 53839 52205 50908
843.7043 50061 49711 49829 50320 51057 51929 52866 53852 54922 56138 57570
849.0076 59269 61245 63452 65787 68109 70275 72175 73762 75046 76072 76893
854.3109 77545 78052 78426 78686 78856 78968 79049 79121 79193 79266 79342
859.6141 79423 79518 79630 79751 79860 79927 79937 79897 79842 79816 79851
864.9174 79952 80091 80228 80327 80370 80353 80286 80179 80045 79909 79800
870.2207 79744 79747 79785 79810 79775 79651 79444 79182 78900 78617 78341
875.5240 78078 77842 77656 77541 77498 77497 77490 77428 77292 77099 76904
880.8273 76779 76797 77004 77413 77989 78658 79322 79888 80294 80524 80598
886.1306 80559 80446 80294 80131 79986 79880 79825 79816 79829 79841 79840
891.4338 79835 79848 79900 79995 80117 80238 80334 80390 80405 80385 80342
896.7371 80286 80232 80191 80171 80164 80147 80088 79962 79766 79523 79280
902.0404 79082 78952 78884 78849 78814 78754 78658 78526 78360 78165 77948
907.3437 77724 77509 77323 77176 77073 77012 76990 77004 77055 77138 77240
912.6470 77338 77405 77420 77378 77297 77204 77131 77096 77100 77127 77164
917.9503 77199 77236 77278 77322 77354 77353 77305 77210 77084 76952 76839
923.2535 76757 76704 76669 76635 76583 76505 76404 76297 76208 76162 76166
928.5568 76209 76265 76303 76301 76252 76161 76047 75928 75824 75748 75705
933.8601 75691 75691 75690 75679 75656 75628 75604 75586 75573 75558 75544
939.1634 75533 75535 75552 75581 75611 75635 75644 75638 75616 75579 75530
944.4667 75478 75434 75413 75417 75441 75473 75502 75527 75555 75598 75658
949.7700 75726 75786 75820 75816 75771 75691 75583 75458 75328 75209 75113
955.0732 75048 75013 74997 74987 74970 74940 74901 74862 74832 74811 74792
960.3765 74764 74714 74639 74538 74419 74286 74146 74012 73913 73883 73954
965.6798 74134 74397 74687 74938 75104 75174 75169 75131 75096 75078 75073
970.9831 75068 75049 75019 74986 74961 74953 74960 74978 75002 75025 75041
976.2864 75039 75009 74945 74849 74729 74601 74475 74359 74257 74168 74089
981.5897 74011 73921 73807 73663 73500 73338 73198 73092 73013 72942 72862
986.8929 72766 72661 72559 72475 72410 72364 72331 72308 72292 72276 72257
992.1962 72227 72185 72133 72079 72029 71988 71958 71936 71915 71884 71830
997.4995 71745 71626 71477 71312 71143 70982 70832 70689 70551 70415 70282
1002.8028 70158 70043 69937 69830 69712 69577 69423 69257 69089 68922 68752
1008.1061 68569 68363 68131 67879 67617 67354 67095 66840 66591 66348 66111
1013.4094 65875 65630 65367 65082 64779 64470 64164 63864 63562 63245 62907
1018.7126 62559 62220 61921 61687 61536 61478 61521 61681 61978 62436 63072
1024.0160 63886 64854 65932 67069 68217 69342 70424 71450 72407 73275 74032
1029.3192 74664 75172 75567 75871 76104 76277 76394 76460 76481 76472 76447
1034.6226 76419 76388 76349 76290 76201 76083 75950 75829 75744 75712 75725
1039.9258 75757 75771 75737 75647 75518 75379 75256 75157 75071 74976 74852
1045.2291 74690 74493 74271 74035 73797 73566 73348 73146 72962 72798 72656
1050.5323 72540 72453 72390 72335 72267 72164 72011 71810 71576 71333 71107
1055.8357 70914 70759 70635 70528 70421 70302 70166 70020 69873 69733 69603
1061.1389 69471 69325 69147 68931 68683 68419 68156 67910 67681 67463 67243
1066.4423 67011 66767 66512 66249 65978 65698 65412 65127 64861 64624 64420
1071.7455 64238 64061 63878 63691 63517 63375 63269 63186 63102 62999 62872
1077.0488 62736 62613 62518 62457 62430 62437 62480 62558 62665 62787 62908
1082.3521 63016 63112 63204 63302 63413 63533 63655 63771 63876 63970 64059
1087.6554 64147 64235 64314 64373 64400 64392 64356 64304 64248 64193 64139
1092.9586 64083 64019 63943 63849 63730 63581 63407 63216 63017 62808 62579
1098.2620 62318 62020 61700 61384 61092 60830 60585 60327 60033 59686 59287
1103.5652 58846 58378 57902 57428 56965 56508 56046 55564 55056 54522 53975
1108.8685 53428 52888 52357 51834 51328 50866 50489 50250 50198 50372 50792
1114.1718 51454 52328 53354 54452 55523 56471 57218 57710 57929 57884 57603
1119.4751 57126 56494 55751 54936 54089 53245 52435 51681 50999 50402 49902
1124.7783 49511 49248 49133 49191 49443 49908 50597 51514 52650 53984 55478
1130.0817 57077 58720 60347 61910 63379 64744 66002 67156 68201 69138 69965
1135.3849 70689 71321 71870 72344 72747 73079 73344 73547 73693 73787 73836
1140.6882 73843 73814 73757 73681 73599 73519 73449 73388 73327 73254 73154
1145.9915 73021 72856 72669 72470 72263 72042 71797 71525 71234 70938 70652
1151.2948 70378 70103 69803 69457 69054 68601 68110 67594 67060 66508 65942
1156.5980 65379 64850 64391 64036 63803 63687 63659 63676 63693 63668 63570
1161.9014 63383 63102 62729 62275 61751 61170 60541 59871 59161 58407 57606
1167.2046 56755 55858 54931 53999 53096 52258 51518 50904 50442 50163 50112
1172.5079 50344 50927 51923 53373 55283 57618 60308 63261 66371 69523 72601
1177.8112 75495 78114 80397 82325 83908 85178 86176 86941 87509 87916 88191
1183.1145 88360 88438 88433 88349 88192 87971 87695 87378 87030 86663 86289
1188.4177 85917 85552 85193 84833 84464 84083 83695 83309 82939 82591 82265
1193.7211 81953 81648 81345 81048 80765 80505 80272 80064 79875 79696 79519
1199.0243 79338 79147 78943 78729 78511 78297 78097 77915 77750 77597 77449
1204.3276 77299 77144 76984 76821 76663 76515 76384 76271 76171 76074 75969
1209.6309 75850 75716 75576 75441 75319 75213 75117 75021 74914 74795 74668
1214.9342 74547 74438 74341 74247 74140 74006 73839 73644 73428 73201 72965
1220.2374 72721 72469 72212 71955 71704 71460 71222 70988 70754 70518 70277
1225.5408 70030 69777 69516 69244 68963 68677 68392 68115 67849 67589 67328
1230.8440 67055 66763 66454 66131 65800 65464 65122 64774 64424 64080 63754
1236.1473 63454 63190 62962 62772 62623 62515 62451 62430 62452 62511 62600
1241.4506 62709 62824 62929 63008 63051 63055 63022 62956 62861 62736 62583
1246.7539 62403 62203 61989 61763 61525 61271 60999 60711 60411 60103 59792
1252.0571 59476 59156 58831 58504 58178 57854 57535 57218 56905 56597 56295
1257.3605 56000 55711 55424 55136 54843 54540 54225 53903 53581 53270 52979
1262.6637 52707 52443 52170 51879 51576 51282 51020 50796 50595 50380 50112
1267.9670 49772 49374 48957 48564 48224 47942 47707 47501 47310 47127 46958
1273.2703 46810 46690 46601 46538 46499 46485 46496 46541 46621 46735 46875
1278.5736 47031 47196 47369 47558 47772 48026 48329 48688 49110 49601 50169
1283.8768 50821 51562 52395 53325 54358 55497 56739 58072 59474 60925 62412
1289.1802 63934 65495 67102 68757 70460 72205 73977 75749 77468 79069 80479
1294.4834 81641 82518 83103 83412 83481 83360 83115 82806 82479 82150 81807
1299.7867 81415 80937 80346 79637 78828 77952 77052 76170 75337 74574 73882
1305.0900 73251 72655 72051 71377 70548 69462 68035 66245 64172 62017 60068
1310.3933 58640 58009 58357 59733 62041 65051 68455 71948 75295 78352 81050
1315.6965 83364 85292 86854 88095 89075 89859 90501 91036 91478 91838 92128
1320.9999 92361 92554 92720 92866 92997 93114 93219 93315 93403 93486 93565
1326.3031 93643 93718 93785 93837 93868 93875 93857 93816 93758 93683 93590
1331.6064 93475 93333 93159 92955 92723 92472 92208 91934 91652 91362 91069
1336.9097 90776 90491 90216 89948 89684 89426 89184 88976 88821 88728 88699
1342.2130 88729 88811 88931 89072 89214 89337 89428 89478 89486 89458 89400
1347.5162 89318 89207 89062 88877 88655 88410 88155 87897 87636 87362 87066
1352.8196 86733 86346 85892 85362 84765 84112 83405 82626 81749 80752 79642
1358.1228 78440 77166 75825 74407 72910 71352 69773 68223 66767 65502 64565
1363.4261 64086 64128 64672 65652 66987 68589 70359 72199 74023 75762 77363
1368.7294 78770 79936 80843 81514 82002 82362 82643 82880 83108 83365 83688
1374.0327 84087 84536 84987 85408 85793 86148 86476 86767 87007 87189 87317
1379.3359 87405 87463 87498 87509 87499 87473 87439 87397 87341 87261 87152
1384.6393 87017 86861 86684 86478 86238 85973 85724 85541 85450 85452 85540
1389.9425 85711 85958 86265 86597 86919 87211 87467 87699 87922 88148 88374
1395.2458 88581 88751 88881 88977 89049 89105 89152 89192 89231 89266 89297
1400.5491 89323 89343 89357 89368 89374 89371 89352 89310 89245 89165 89089
1405.8524 89032 88995 88970 88950 88927 88901 88874 88849 88827 88807 88786
1411.1556 88759 88725 88684 88641 88599 88561 88527 88495 88457 88408 88346
1416.4590 88274 88193 88099 87982 87825 87626 87421 87254 87135 87043 86953
1421.7622 86850 86725 86577 86412 86240 86076 85927 85793 85666 85541 85412
1427.0656 85275 85126 84960 84771 84548 84284 83987 83681 83383 83093 82793
1432.3688 82459 82084 81684 81291 80928 80583 80198 79664 78869 77851 76836
1437.6721 75976 75232 74504 73727 72894 72051 71282 70675 70300 70207 70437
1442.9753 71025 71966 73192 74560 75889 77030 77901 78508 78927 79292 79738
1448.2787 80330 81029 81756 82461 83127 83744 84295 84752 85097 85337 85500
1453.5819 85611 85688 85732 85741 85706 85623 85500 85366 85260 85189 85135
1458.8853 85079 85010 84921 84806 84661 84489 84299 84103 83905 83698 83459
1464.1885 83162 82810 82452 82138 81873 81624 81349 81017 80617 80158 79661
1469.4918 79143 78600 77997 77277 76383 75369 74533 74256 74590 75319 76296
1474.7950 77524 79057 80857 82676 84150 85075 85521 85680 85705 85676 85611
1480.0984 85508 85363 85186 84996 84810 84633 84466 84309 84165 84034 83916
1485.4016 83802 83680 83535 83366 83182 83004 82840 82682 82510 82310 82096
1490.7050 81900 81736 81588 81435 81266 81081 80887 80685 80469 80222 79944
1496.0082 79665 79437 79277 79152 79005 78798 78532 78244 77970 77716 77465
1501.3115 77193 76894 76583 76283 76011 75766 75533 75286 74976 74516 73824
1506.6147 73024 72402 72002 71691 71374 71027 70661 70294 69932 69563 69166
1511.9181 68738 68327 68024 67910 68012 68309 68778 69466 70564 72378 74982
1517.2213 77835 80213 81880 83014 83870 84657 85536 86609 87781 88711 89211
1522.5247 89432 89547 89617 89644 89615 89522 89371 89177 88956 88714 88458
1527.8279 88198 87944 87698 87453 87198 86928 86646 86361 86078 85796 85501
1533.1312 85191 84891 84635 84424 84234 84040 83832 83614 83393 83176 82965
1538.4344 82749 82519 82296 82119 81987 81864 81725 81577 81438 81318 81209
1543.7378 81091 80944 80762 80561 80372 80212 80077 79956 79840 79727 79620
1549.0410 79525 79450 79392 79340 79280 79207 79119 79015 78894 78754 78604
1554.3444 78465 78349 78250 78152 78043 77914 77756 77549 77262 76892 76565
1559.6476 76372 76256 76163 76070 75964 75837 75683 75495 75270 75010 74721
1564.9509 74423 74135 73870 73630 73409 73195 72962 72672 72274 71764 71230
1570.2542 70767 70370 69979 69549 69073 68591 68165 67856 67719 67836 68363
1575.5575 69490 71112 72574 73344 73516 73375 73098 72753 72365 71949 71526
1580.8607 71115 70724 70348 69978 69608 69234 68855 68474 68091 67709 67332
1586.1641 66964 66607 66263 65927 65596 65266 64940 64624 64329 64066 63842
1591.4674 63659 63510 63389 63293 63226 63201 63230 63321 63476 63690 63961
1596.7706 64288 64665 65084 65532 66003 66497 67025 67599 68221 68889 69599
1602.0740 70355 71169 72042 72959 73889 74808 75711 76611 77522 78443 79352
1607.3772 80220 81028 81777 82476 83122 83693 84163 84520 84772 84936 85022
1612.6805 85033 84971 84850 84689 84503 84284 83981 83507 82825 82076 81433
1617.9838 80912 80428 79910 79324 78683 78034 77424 76867 76341 75796 75191
1623.2871 74545 73937 73427 73001 72613 72218 71778 71266 70673 70033 69418
1628.5903 68887 68444 68062 67720 67417 67171 67005 66922 66903 66923 66978
1633.8937 67106 67409 68041 69058 70220 71240 72111 72959 73855 74802 75764
1639.1969 76711 77635 78540 79430 80288 81082 81780 82363 82834 83209 83509
1644.5002 83761 84000 84267 84601 85008 85448 85872 86247 86558 86791 86940
1649.8035 87009 87013 86967 86882 86766 86613 86407 86159 85927 85714 85492
1655.1068 85248 84978 84680 84356 84015 83665 83315 82961 82593 82201 81784
1660.4100 81345 80875 80340 79679 78859 77944 77069 76313 75642 74980 74272
1665.7134 73518 72763 72056 71409 70770 70042 69156 68177 67272 66529 65876
1671.0166 65201 64474 63752 63113 62581 62110 61590 60882 59921 58888 58119
1676.3199 57729 57600 57608 57706 57903 58245 58783 59526 60409 61310 62125
1681.6232 62807 63359 63835 64395 65446 67425 69726 71298 72199 72845 73471
1686.9265 74177 75003 75951 76991 78069 79125 80127 81068 81961 82816 83636
1692.2297 84408 85114 85739 86287 86791 87341 88094 89156 90312 91176 91678
1697.5331 91965 92160 92334 92564 93019 93940 95111 95898 96268 96476 96661
1702.8363 96870 97109 97355 97566 97705 97766 97778 97775 97768 97749 97707
1708.1396 97645 97571 97499 97440 97399 97371 97344 97310 97262 97202 97138
1713.4429 97081 97049 97056 97094 97142 97177 97191 97193 97204 97251 97331
1718.7462 97409 97464 97500 97524 97543 97558 97567 97563 97540 97498 97443
1724.0494 97387 97340 97305 97277 97252 97221 97181 97133 97080 97030 96989
1729.3528 96960 96936 96904 96850 96774 96679 96570 96453 96349 96298 96325
1734.6560 96381 96409 96395 96352 96288 96216 96147 96092 96058 96042 96034
1739.9594 96017 95989 95958 95928 95899 95859 95798 95711 95611 95519 95447
1745.2626 95399 95368 95350 95339 95336 95343 95357 95375 95386 95388 95385
1750.5659 95387 95407 95444 95481 95499 95489 95452 95397 95335 95279 95242
1755.8691 95232 95245 95271 95290 95290 95268 95231 95187 95142 95103 95071
1761.1725 95045 95021 94995 94971 94951 94939 94933 94929 94926 94922 94926
1766.4757 94946 94995 95071 95156 95219 95241 95227 95199 95178 95184 95229
1771.7791 95312 95403 95467 95504 95528 95546 95554 95540 95497 95426 95344
1777.0823 95267 95207 95162 95129 95105 95089 95084 95089 95097 95096 95079
1782.3856 95045 94996 94933 94859 94780 94706 94653 94627 94630 94655 94695
1787.6888 94741 94789 94833 94870 94898 94913 94916 94910 94908 94928 94977
1792.9922 95044 95112 95170 95216 95253 95277 95283 95269 95235 95193 95152
1798.2954 95123 95112 95120 95139 95157 95162 95149 95121 95086 95054 95030
1803.5988 95017 95011 95009 95008 95009 95009 95007 94998 94976 94942 94899
1808.9020 94860 94832 94822 94830 94847 94864 94870 94858 94824 94769 94699
1814.2053 94632 94590 94589 94628 94689 94744 94769 94756 94720 94684 94665
1819.5085 94662 94664 94652 94616 94555 94482 94416 94373 94360 94376 94409
1824.8119 94438 94444 94423 94386 94347 94315 94295 94291 94315 94375 94466
1830.1151 94556 94612 94623 94595 94545 94486 94429 94384 94355 94342 94345
1835.4185 94358 94377 94396 94408 94411 94404 94387 94362 94329 94290 94249
1840.7217 94213 94187 94174 94175 94193 94231 94287 94347 94386 94392 94374
1846.0250 94345 94315 94290 94276 94278 94300 94340 94386 94420 94424 94387
1851.3282 94313 94220 94135 94077 94055 94063 94092 94131 94173 94210 94232
1856.6316 94231 94199 94141 94073 94020 94002 94028 94091 94168 94233 94263
1861.9348 94250 94199 94123 94034 93937 93835 93730 93634 93566 93547 93592
1867.2382 93702 93864 94047 94206 94298 94303 94231 94114 93986 93876 93809
1872.5414 93793 93816 93852 93868 93847 93794 93729 93675 93650 93656 93690
1877.8447 93741 93794 93830 93830 93781 93688 93571 93462 93385 93352 93358
1883.1479 93391 93439 93496 93560 93628 93697 93765 93824 93868 93879 93842
1888.4513 93745 93597 93437 93315 93257 93253 93275 93296 93300 93284 93251
1893.7545 93206 93152 93100 93059 93039 93040 93057 93083 93111 93139 93161
1899.0579 93168 93147 93092 93007 92901 92788 92672 92555 92442 92348 92298
1904.3611 92307 92373 92467 92553 92602 92609 92586 92556 92525 92484 92415
1909.6644 92309 92181 92065 91991 91967 91972 91969 91924 91824 91679 91517
1914.9677 91355 91194 91016 90812 90600 90448 90440 90619 90933 91276 91560
1920.2710 91750 91864 91962 92114 92362 92680 92978 93160 93185 93091 92958
1925.5742 92872 92883 92990 93140 93260 93292 93223 93078 92906 92745 92614
1930.8776 92513 92440 92406 92438 92557 92755 92990 93200 93334 93377 93359
1936.1808 93326 93308 93304 93282 93217 93118 93036 93037 93169 93436 93793
1941.4841 94149 94390 94424 94239 93910 93543 93223 93006 92918 92954 93075
1946.7874 93213 93302 93299 93204 93048 92876 92730 92635 92601 92629 92707
1952.0907 92814 92919 92997 93041 93068 93107 93174 93256 93318 93331 93294
1957.3939 93242 93223 93273 93394 93554 93707 93813 93848 93810 93721 93622
1962.6973 93565 93591 93696 93826 93896 93841 93648 93369 93084 92843 92643
