##TITLE= INC17
##JCAMP-DX= 4.24
##DATA TYPE= INFRARED SPECTRUM
##ORIGIN= JASCO
##OWNER= 
##DATE= 22/04/12
##TIME= 12:46:52
##SPECTROMETER/DATA SYSTEM= 
##RESOLUTION= 
##DELTAX=   0.48211674
##XUNITS= 1/CM
##YUNITS= TRANSMITTANCE
##XFACTOR= 1.00000
##YFACTOR= 1E-005
##FIRSTX=   599.7532
##LASTX=  4000.1226
##NPOINTS=     7054
##FIRSTY=      0.73346
##MAXY=      0.99010
##MINY=      0.22978
##XYDATA= (X++(Y..Y))
599.7532 73346 71987 70860 70001 69323 68641 67771 66660 65475 64585 64421
605.0565 65287 67232 70027 73270 76546 79554 82137 84235 85821 86888 87474
610.3598 87691 87715 87717 87799 87968 88158 88294 88343 88318 88254 88171
615.6631 88052 87861 87573 87200 86799 86449 86212 86102 86086 86100 86085
620.9664 86018 85932 85897 85967 86137 86334 86463 86482 86452 86513 86789
626.2697 87275 87812 88142 88045 87448 86483 85427 84577 84121 84082 84355
631.5729 84784 85237 85639 85961 86185 86282 86222 85998 85652 85258 84891
636.8762 84579 84295 83987 83613 83177 82729 82337 82047 81862 81748 81662
642.1795 81592 81569 81657 81904 82297 82738 83073 83162 82945 82470 81862
647.4828 81261 80765 80398 80122 79873 79592 79251 78850 78401 77919 77409
652.7861 76876 76330 75803 75353 75044 74909 74920 74977 74950 74735 74292
658.0894 73663 72947 72256 71678 71247 70947 70727 70521 70264 69910 69442
663.3926 68884 68298 67758 67316 66979 66714 66456 66094 65412 64080 62219
668.6959 60916 60430 60173 59845 59418 58948 58497 58076 57615 57004 56175
673.9992 55177 54173 53360 52858 52645 52571 52444 52120 51555 50785 49891
679.3025 48954 48053 47260 46632 46206 45996 46021 46332 47013 48156 49797
684.6058 51880 54230 56583 58628 60085 60779 60691 59974 58921 57893 57224
689.9091 57116 57567 58355 59098 59349 58732 57054 54352 50855 46864 42626
695.2123 38286 33961 29857 26343 23904 22978 23791 26271 30115 34919 40270
700.5156 45757 50946 55431 58958 61570 63595 65483 67568 69919 72375 74719
705.8189 76849 78841 80845 82945 85071 87038 88661 89860 90670 91183 91475
711.1222 91593 91578 91492 91399 91312 91173 90889 90420 89841 89325 89053
716.4255 89101 89388 89722 89902 89818 89472 88949 88359 87790 87285 86849
721.7288 86467 86114 85762 85388 84985 84566 84161 83798 83483 83200 82921
727.0320 82619 82284 81915 81515 81083 80610 80088 79506 78854 78128 77333
732.3353 76492 75639 74799 73974 73120 72170 71059 69766 68317 66773 65185
737.6386 63569 61898 60115 58168 56029 53695 51190 48555 45847 43145 40546
742.9419 38167 36138 34590 33633 33341 33736 34781 36385 38416 40732 43203
748.2452 45737 48272 50765 53167 55419 57475 59324 61009 62605 64187 65791
753.5485 67404 68988 70506 71939 73274 74494 75571 76483 77235 77871 78450
758.8517 79007 79524 79935 80167 80179 79982 79631 79189 78704 78199 77687
764.1550 77187 76734 76369 76115 75967 75887 75815 75697 75496 75201 74822
769.4583 74371 73855 73270 72610 71880 71092 70253 69360 68396 67350 66245
774.7616 65149 64161 63381 62879 62686 62810 63263 64070 65258 66827 68723
780.0649 70837 73017 75110 76994 78601 79923 80996 81874 82608 83239 83798
785.3682 84316 84835 85401 86043 86766 87539 88309 89023 89647 90161 90559
790.6714 90842 91019 91120 91198 91318 91521 91801 92103 92349 92478 92477
795.9747 92381 92246 92114 92003 91914 91849 91816 91820 91852 91890 91915
801.2780 91927 91940 91961 91965 91905 91740 91473 91161 90884 90691 90570
806.5813 90459 90293 90054 89782 89551 89420 89400 89459 89541 89599 89606
811.8846 89563 89482 89380 89271 89157 89030 88871 88664 88405 88109 87812
817.1879 87552 87357 87235 87170 87141 87132 87140 87178 87255 87366 87487
822.4911 87584 87626 87602 87515 87375 87188 86958 86690 86402 86123 85877
827.7944 85673 85500 85335 85152 84940 84705 84465 84240 84047 83887 83743
833.0977 83583 83373 83094 82751 82377 82014 81684 81379 81057 80667 80173
838.4010 79567 78871 78116 77327 76505 75636 74693 73649 72483 71189 69770
843.7043 68238 66611 64910 63164 61416 59737 58236 57053 56331 56185 56653
849.0076 57679 59112 60747 62386 63890 65211 66384 67499 68664 69971 71473
854.3109 73178 75054 77035 79037 80973 82768 84371 85755 86912 87852 88593
859.6141 89164 89607 89969 90297 90622 90953 91282 91589 91856 92072 92233
864.9174 92340 92394 92398 92356 92278 92177 92066 91958 91864 91791 91738
870.2207 91696 91642 91549 91396 91172 90893 90590 90306 90074 89909 89803
875.5240 89731 89667 89602 89542 89506 89510 89551 89603 89631 89604 89513
880.8273 89375 89224 89097 89018 88993 89010 89051 89101 89152 89198 89240
886.1306 89278 89315 89359 89421 89510 89624 89747 89861 89943 89980 89971
891.4338 89919 89836 89731 89609 89471 89315 89136 88934 88722 88523 88361
896.7371 88254 88199 88178 88160 88117 88031 87890 87687 87419 87089 86706
902.0404 86289 85855 85419 84990 84574 84174 83790 83409 83011 82567 82061
907.3437 81487 80854 80174 79448 78666 77822 76920 75995 75105 74323 73724
912.6470 73373 73318 73583 74165 75023 76090 77275 78482 79635 80684 81613
917.9503 82433 83161 83813 84388 84872 85249 85516 85691 85811 85910 86009
923.2535 86104 86174 86201 86183 86136 86081 86032 85990 85945 85892 85829
928.5568 85764 85700 85634 85558 85465 85360 85253 85157 85078 85007 84926
933.8601 84818 84671 84487 84278 84056 83832 83606 83371 83121 82850 82559
939.1634 82251 81930 81593 81230 80828 80372 79849 79251 78577 77837 77052
944.4667 76247 75446 74668 73920 73210 72552 71977 71527 71245 71165 71298
949.7700 71631 72134 72769 73497 74282 75096 75913 76714 77486 78222 78917
955.0732 79571 80184 80761 81308 81831 82332 82807 83242 83619 83917 84120
960.3765 84228 84257 84233 84187 84139 84088 84019 83910 83754 83564 83369
965.6798 83195 83053 82930 82804 82667 82532 82434 82407 82463 82581 82714
970.9831 82816 82855 82829 82755 82654 82544 82434 82328 82233 82160 82113
976.2864 82089 82070 82031 81951 81817 81634 81415 81175 80924 80666 80398
981.5897 80116 79816 79491 79138 78758 78354 77932 77500 77066 76640 76231
986.8929 75850 75500 75178 74870 74565 74256 73947 73647 73357 73068 72765
992.1962 72435 72079 71710 71346 70999 70672 70366 70085 69839 69640 69495
997.4995 69394 69320 69256 69187 69107 69018 68919 68811 68692 68560 68423
1002.8028 68303 68246 68334 68665 69328 70366 71744 73353 75035 76637 78048
1008.1061 79219 80151 80871 81410 81797 82055 82207 82277 82288 82254 82179
1013.4094 82059 81883 81644 81342 80987 80594 80177 79743 79280 78769 78191
1018.7126 77538 76816 76044 75244 74429 73607 72788 71984 71224 70546 69994
1024.0160 69605 69404 69396 69571 69899 70342 70853 71382 71877 72292 72594
1029.3192 72770 72836 72837 72831 72883 73050 73362 73816 74371 74950 75460
1034.6226 75828 76032 76121 76207 76421 76867 77584 78537 79637 80781 81882
1039.9258 82878 83740 84455 85029 85477 85824 86095 86304 86454 86542 86568
1045.2291 86541 86481 86406 86320 86217 86085 85919 85730 85539 85365 85212
1050.5323 85071 84922 84749 84551 84338 84132 83952 83815 83729 83696 83704
1055.8357 83734 83757 83742 83669 83531 83340 83120 82894 82677 82470 82265
1061.1389 82049 81812 81542 81231 80870 80456 79995 79502 78999 78504 78026
1066.4423 77553 77061 76516 75887 75152 74300 73335 72271 71131 69949 68765
1071.7455 67629 66605 65758 65154 64848 64879 65274 66045 67189 68683 70472
1077.0488 72460 74523 76526 78352 79919 81192 82176 82898 83403 83737 83947
1082.3521 84073 84145 84183 84196 84192 84176 84159 84148 84151 84170 84199
1087.6554 84222 84218 84177 84099 84003 83917 83861 83837 83826 83800 83741
1092.9586 83649 83543 83443 83361 83296 83236 83171 83095 83007 82910 82805
1098.2620 82695 82580 82461 82341 82219 82097 81978 81867 81770 81688 81616
1103.5652 81549 81479 81404 81323 81234 81130 81006 80858 80694 80529 80377
1108.8685 80248 80136 80024 79895 79736 79548 79341 79126 78911 78695 78475
1114.1718 78247 78009 77763 77506 77234 76941 76625 76287 75936 75581 75229
1119.4751 74880 74530 74175 73818 73462 73114 72779 72460 72155 71867 71596
1124.7783 71344 71112 70901 70716 70566 70460 70406 70401 70433 70484 70541
1130.0817 70604 70683 70792 70944 71140 71372 71630 71905 72191 72480 72763
1135.3849 73021 73238 73400 73503 73549 73545 73493 73387 73218 72974 72653
1140.6882 72261 71813 71325 70805 70249 69645 68978 68241 67434 66563 65637
1145.9915 64666 63659 62634 61617 60642 59748 58971 58343 57884 57599 57481
1151.2948 57511 57658 57885 58159 58451 58748 59046 59346 59648 59937 60192
1156.5980 60390 60514 60560 60532 60444 60314 60167 60036 59960 59976 60105
1161.9014 60354 60716 61188 61772 62478 63304 64234 65232 66260 67294 68335
1167.2046 69400 70503 71645 72798 73926 74991 75972 76864 77671 78399 79046
1172.5079 79608 80082 80471 80789 81051 81270 81450 81589 81681 81725 81722
1177.8112 81676 81589 81461 81294 81096 80884 80678 80493 80333 80196 80074
1183.1145 79966 79873 79802 79756 79731 79722 79717 79704 79673 79617 79537
1188.4177 79448 79370 79325 79324 79361 79420 79481 79531 79569 79601 79628
1193.7211 79645 79637 79593 79509 79391 79252 79106 78958 78812 78662 78503
1199.0243 78328 78128 77898 77634 77341 77029 76709 76392 76076 75753 75415
1204.3276 75055 74675 74287 73905 73539 73195 72870 72557 72251 71950 71653
1209.6309 71363 71083 70809 70538 70261 69974 69675 69367 69054 68741 68432
1214.9342 68130 67840 67566 67306 67058 66813 66557 66279 65969 65626 65252
1220.2374 64858 64460 64079 63735 63447 63223 63069 62989 62990 63084 63285
1225.5408 63595 64005 64494 65040 65626 66250 66919 67641 68417 69232 70059
1230.8440 70866 71632 72343 73002 73614 74183 74708 75185 75609 75978 76294
1236.1473 76559 76774 76944 77070 77163 77230 77282 77322 77346 77348 77319
1241.4506 77260 77182 77097 77015 76940 76864 76779 76680 76570 76455 76343
1246.7539 76235 76129 76017 75894 75757 75607 75446 75276 75097 74908 74707
1252.0571 74495 74275 74053 73833 73611 73382 73135 72867 72585 72300 72029
1257.3605 71777 71543 71320 71098 70875 70658 70461 70296 70169 70077 70012
1262.6637 69965 69933 69911 69893 69858 69773 69605 69348 69034 68740 68550
1267.9670 68516 68616 68762 68842 68768 68511 68101 67605 67087 66589 66123
1273.2703 65687 65281 64909 64576 64281 64014 63759 63508 63258 63016 62784
1278.5736 62561 62336 62096 61829 61523 61174 60781 60345 59870 59359 58817
1283.8768 58243 57633 56982 56279 55518 54702 53842 52962 52089 51246 50444
1289.1802 49687 48972 48303 47694 47172 46774 46541 46512 46711 47140 47768
1294.4834 48533 49352 50138 50809 51299 51565 51585 51356 50893 50224 49388
1299.7867 48428 47387 46300 45198 44107 43056 42078 41213 40500 39975 39668
1305.0900 39602 39796 40265 41018 42054 43360 44902 46628 48468 50355 52229
1310.3933 54045 55768 57371 58823 60089 61138 61949 62516 62849 62969 62895
1315.6965 62649 62253 61734 61116 60433 59725 59056 58508 58164 58078 58258
1320.9999 58675 59276 60014 60846 61740 62660 63564 64406 65139 65721 66127
1326.3031 66346 66376 66227 65909 65437 64825 64092 63266 62383 61489 60637
1331.6064 59876 59254 58801 58533 58441 58505 58697 58996 59381 59835 60326
1336.9097 60817 61267 61646 61935 62133 62268 62410 62652 63075 63719 64589
1342.2130 65658 66872 68152 69408 70559 71562 72415 73138 73756 74287 74746
1347.5162 75143 75485 75771 75992 76137 76205 76215 76201 76206 76267 76409
1352.8196 76642 76962 77353 77785 78220 78619 78956 79219 79412 79543 79625
1358.1228 79666 79673 79650 79599 79520 79414 79282 79117 78911 78656 78355
1363.4261 78028 77697 77375 77065 76769 76495 76253 76053 75891 75756 75632
1368.7294 75504 75369 75225 75074 74914 74745 74569 74386 74191 73969 73705
1374.0327 73395 73060 72735 72443 72182 71938 71693 71438 71171 70897 70622
1379.3359 70348 70072 69795 69517 69238 68957 68673 68382 68088 67801 67535
1384.6393 67298 67084 66872 66626 66311 65921 65500 65118 64807 64550 64309
1389.9425 64052 63767 63466 63177 62919 62690 62466 62205 61858 61393 60839
1395.2458 60287 59816 59438 59112 58773 58344 57753 56982 56114 55277 54531
1400.5491 53845 53154 52422 51652 50874 50098 49299 48418 47417 46347 45342
1405.8524 44520 43909 43468 43151 42950 42892 43022 43385 44008 44906 46077
1411.1556 47501 49146 50967 52914 54930 56958 58954 60896 62780 64597 66315
1416.4590 67877 69245 70433 71528 72663 73919 75176 76200 76917 77420 77825
1421.7622 78199 78572 78937 79259 79490 79601 79603 79526 79387 79193 78947
1427.0656 78663 78352 78017 77638 77173 76592 75914 75209 74527 73847 73094
1432.3688 72195 71141 70014 68944 68017 67245 66595 66054 65692 65626 65825
1437.6721 66120 66393 66608 66753 66803 66720 66469 66036 65434 64689 63839
1442.9753 62935 62054 61295 60755 60491 60510 60786 61287 61976 62786 63580
1448.2787 64193 64543 64666 64631 64484 64228 63851 63350 62756 62123 61500
1453.5819 60908 60344 59797 59253 58709 58206 57895 58027 58716 59741 60785
1458.8853 61673 62361 62870 63241 63515 63723 63886 64008 64078 64067 63920
1464.1885 63578 63048 62457 61956 61584 61288 61003 60692 60360 60035 59750
1469.4918 59518 59330 59159 58965 58672 58182 57477 56761 56260 55986 55830
1474.7950 55676 55434 55052 54559 54068 53681 53411 53212 53029 52823 52575
1480.0984 52278 51945 51598 51264 50965 50705 50477 50272 50089 49928 49787
1485.4016 49651 49491 49281 49025 48771 48572 48435 48310 48101 47726 47204
1490.7050 46672 46239 45913 45662 45470 45345 45309 45399 45674 46226 47138
1496.0082 48361 49669 50843 51864 52843 53858 54865 55737 56392 56855 57207
1501.3115 57520 57828 58126 58404 58663 58916 59178 59451 59709 59871 59790
1506.6147 59449 59143 59032 59036 59075 59122 59172 59216 59240 59225 59159
1511.9181 59049 58920 58804 58722 58680 58670 58676 58668 58586 58353 57965
1517.2213 57569 57322 57241 57266 57331 57379 57327 57042 56430 55710 55233
1522.5247 55038 54991 54985 54958 54864 54677 54415 54132 53873 53640 53407
1527.8279 53154 52898 52675 52511 52402 52330 52271 52206 52110 51939 51632
1533.1312 51166 50638 50221 49988 49889 49856 49849 49862 49900 49964 50028
1538.4344 49998 49687 48998 48246 47779 47532 47317 47056 46783 46560 46401
1543.7378 46261 46067 45769 45399 45052 44804 44664 44597 44566 44534 44463
1549.0410 44307 44044 43720 43446 43302 43284 43350 43444 43512 43490 43346
1554.3444 43146 43027 43057 43212 43451 43743 44067 44380 44536 44304 43949
1559.6476 43975 44264 44630 45011 45397 45788 46191 46607 47041 47497 47976
1564.9509 48479 48999 49524 50045 50555 51058 51570 52131 52795 53572 54354
1570.2542 55020 55572 56082 56618 57210 57851 58500 59114 59675 60218 60835
1575.5575 61652 62683 63679 64419 64954 65422 65908 66442 67022 67629 68239
1580.8607 68837 69418 69980 70522 71041 71534 72002 72441 72854 73243 73617
1586.1641 73988 74364 74750 75141 75523 75883 76206 76483 76714 76906 77071
1591.4674 77217 77351 77468 77564 77636 77685 77715 77732 77738 77726 77689
1596.7706 77617 77510 77371 77213 77051 76899 76768 76666 76596 76562 76562
1602.0740 76594 76652 76729 76820 76919 77025 77138 77255 77370 77474 77560
1607.3772 77625 77672 77705 77731 77749 77760 77764 77759 77741 77700 77622
1612.6805 77501 77347 77184 77035 76906 76771 76557 76159 75562 74966 74568
1617.9838 74356 74225 74101 73951 73779 73609 73470 73376 73323 73304 73328
1623.2871 73421 73602 73848 74127 74420 74732 75076 75473 75940 76469 77017
1628.5903 77538 78012 78444 78850 79242 79626 80000 80357 80695 81018 81341
1633.8937 81685 82067 82481 82853 83097 83244 83382 83557 83775 84027 84308
1639.1969 84618 84959 85330 85728 86137 86545 86939 87315 87675 88023 88366
1644.5002 88709 89054 89394 89697 89915 90027 90076 90124 90199 90298 90413
1649.8035 90534 90662 90796 90941 91106 91293 91443 91399 91228 91123 91088
1655.1068 91085 91097 91116 91137 91158 91179 91197 91216 91238 91266 91304
1660.4100 91348 91392 91422 91421 91380 91313 91254 91218 91200 91183 91159
1665.7134 91134 91120 91133 91178 91248 91316 91340 91288 91183 91082 91020
1671.0166 90999 91006 91027 91060 91107 91179 91289 91449 91646 91824 91934
1676.3199 91993 92046 92118 92216 92339 92482 92642 92814 92986 93149 93297
1681.6232 93431 93561 93702 93882 94125 94365 94435 94367 94289 94240 94216
1686.9265 94212 94225 94256 94300 94351 94400 94438 94467 94488 94505 94523
1692.2297 94543 94567 94595 94629 94674 94739 94837 94969 95095 95176 95225
1697.5331 95268 95324 95402 95519 95692 95892 96005 96009 96003 96026 96081
1702.8363 96160 96260 96374 96491 96595 96666 96691 96668 96615 96557 96513
1708.1396 96486 96470 96456 96436 96412 96391 96383 96392 96415 96446 96477
1713.4429 96494 96476 96407 96298 96182 96091 96027 95957 95805 95503 95114
1718.7462 94777 94538 94369 94238 94128 94039 93973 93933 93909 93887 93850
1724.0494 93791 93715 93632 93549 93473 93406 93353 93316 93295 93292 93305
1729.3528 93329 93356 93379 93396 93415 93444 93493 93565 93645 93674 93596
1734.6560 93463 93353 93280 93231 93195 93175 93179 93219 93295 93383 93426
1739.9594 93381 93272 93158 93082 93060 93088 93142 93184 93185 93144 93089
1745.2626 93045 93025 93031 93051 93068 93069 93054 93042 93047 93073 93104
1750.5659 93113 93076 92995 92896 92804 92723 92649 92574 92499 92433 92389
1755.8691 92379 92398 92424 92428 92403 92360 92322 92307 92321 92363 92415
1761.1725 92449 92435 92373 92296 92233 92195 92178 92173 92174 92175 92177
1766.4757 92178 92178 92175 92170 92168 92175 92193 92225 92272 92335 92412
1771.7791 92483 92520 92514 92488 92460 92435 92409 92376 92329 92273 92219
1777.0823 92183 92177 92206 92264 92339 92405 92436 92414 92345 92255 92171
1782.3856 92107 92066 92046 92044 92055 92069 92079 92081 92073 92059 92041
1787.6888 92024 92010 92002 92001 92008 92021 92038 92053 92057 92041 92009
1792.9922 91976 91956 91951 91955 91958 91947 91913 91857 91792 91733 91685
1798.2954 91645 91608 91568 91528 91496 91479 91474 91471 91454 91411 91345
1803.5988 91268 91196 91143 91112 91102 91100 91090 91063 91016 90960 90911
1808.9020 90885 90883 90898 90908 90895 90849 90781 90708 90642 90589 90548
1814.2053 90518 90501 90500 90514 90539 90560 90562 90534 90479 90409 90340
1819.5085 90283 90242 90215 90195 90177 90157 90139 90129 90137 90167 90215
1824.8119 90260 90273 90243 90184 90124 90084 90071 90082 90099 90090 90026
1830.1151 89922 89826 89772 89763 89781 89802 89807 89788 89757 89736 89742
1835.4185 89784 89848 89916 89964 89984 89981 89972 89971 89984 90007 90035
1840.7217 90059 90074 90079 90069 90040 89987 89917 89857 89839 89859 89891
1846.0250 89910 89904 89875 89835 89799 89773 89750 89719 89676 89630 89594
1851.3282 89578 89578 89583 89578 89560 89532 89503 89475 89447 89414 89372
1856.6316 89323 89270 89219 89172 89127 89077 89018 88945 88863 88786 88735
1861.9348 88732 88783 88876 88978 89048 89056 88993 88879 88753 88658 88619
1867.2382 88634 88677 88707 88694 88636 88558 88484 88421 88364 88302 88231
1872.5414 88156 88086 88029 87987 87948 87899 87827 87731 87623 87525 87456
1877.8447 87428 87431 87443 87438 87406 87355 87314 87309 87352 87429 87505
1883.1479 87541 87512 87424 87311 87216 87170 87179 87225 87283 87336 87382
1888.4513 87426 87470 87501 87501 87465 87408 87351 87312 87292 87278 87253
1893.7545 87206 87143 87080 87033 87006 86990 86974 86955 86935 86915 86890
1899.0579 86863 86848 86875 86964 87107 87252 87326 87272 87099 86880 86721
1904.3611 86704 86840 87069 87300 87459 87521 87507 87462 87418 87383 87350
1909.6644 87316 87289 87282 87298 87322 87334 87321 87291 87269 87275 87317
1914.9677 87380 87448 87516 87599 87717 87870 88014 88077 88022 87877 87712
1920.2710 87596 87577 87664 87825 87989 88083 88080 88014 87942 87906 87905
1925.5742 87914 87899 87843 87749 87644 87556 87503 87488 87507 87551 87614
1930.8776 87692 87779 87859 87914 87925 87886 87801 87686 87563 87450 87360
1936.1808 87296 87252 87218 87177 87118 87035 86942 86871 86866 86970 87208
1941.4841 87556 87918 88141 88105 87815 87391 86985 86718 86645 86735 86884
1946.7874 86969 86922 86767 86585 86452 86388 86354 86288 86169 86040 85988
1952.0907 86085 86336 86670 86975 87153 87155 86996 86740 86470 86271 86206
1957.3939 86302 86544 86872 87210 87487 87653 87678 87550 87280 86926 86596
1962.6973 86423 86500 86825 87287 87719 87983 88037 87949 87844 87822 87903
